energy;conductance
-0.1;0.995
-0.0998;0.997
-0.0996;0.998
-0.0994;0.999
-0.0992;1.0
-0.099;1.0
-0.0988;1.0
-0.0986;0.999
-0.0984;0.998
-0.0982;0.996
-0.098;0.994
-0.0978;0.992
-0.0976;0.989
-0.0974;0.985
-0.0972;0.981
-0.097;0.977
-0.0968;0.971
-0.0966;0.966
-0.0964;0.959
-0.0962;0.953
-0.096;0.945
-0.0958;0.938
-0.0956;0.929
-0.0954;0.92
-0.0952;0.911
-0.095;0.901
-0.0948;0.891
-0.0946;0.88
-0.0944;0.868
-0.0942;0.857
-0.094;0.845
-0.0938;0.832
-0.0936;0.819
-0.0934;0.806
-0.0932;0.792
-0.093;0.778
-0.0928;0.764
-0.0926;0.75
-0.0924;0.735
-0.0922;0.72
-0.092;0.705
-0.0918;0.69
-0.0916;0.675
-0.0914;0.66
-0.0912;0.644
-0.091;0.629
-0.0908;0.613
-0.0906;0.598
-0.0904;0.583
-0.0902;0.567
-0.09;0.552
-0.0898;0.537
-0.0896;0.522
-0.0894;0.507
-0.0892;0.493
-0.089;0.478
-0.0888;0.464
-0.0886;0.45
-0.0884;0.436
-0.0882;0.423
-0.088;0.409
-0.0878;0.396
-0.0876;0.383
-0.0874;0.371
-0.0872;0.358
-0.087;0.346
-0.0868;0.335
-0.0866;0.323
-0.0864;0.312
-0.0862;0.301
-0.086;0.29
-0.0858;0.28
-0.0856;0.27
-0.0854;0.26
-0.0852;0.251
-0.085;0.241
-0.0848;0.232
-0.0846;0.224
-0.0844;0.215
-0.0842;0.207
-0.084;0.199
-0.0838;0.191
-0.0836;0.184
-0.0834;0.176
-0.0832;0.169
-0.083;0.163
-0.0828;0.156
-0.0826;0.15
-0.0824;0.143
-0.0822;0.138
-0.082;0.132
-0.0818;0.126
-0.0816;0.121
-0.0814;0.116
-0.0812;0.111
-0.081;0.106
-0.0808;0.101
-0.0806;0.097
-0.0804;0.093
-0.0802;0.089
-0.08;0.085
-0.0798;0.081
-0.0796;0.077
-0.0794;0.073
-0.0792;0.07
-0.079;0.067
-0.0788;0.064
-0.0786;0.06
-0.0784;0.058
-0.0782;0.055
-0.078;0.052
-0.0778;0.049
-0.0776;0.047
-0.0774;0.045
-0.0772;0.042
-0.077;0.04
-0.0768;0.038
-0.0766;0.036
-0.0764;0.034
-0.0762;0.032
-0.076;0.03
-0.0758;0.029
-0.0756;0.027
-0.0754;0.025
-0.0752;0.024
-0.075;0.022
-0.0748;0.021
-0.0746;0.02
-0.0744;0.018
-0.0742;0.017
-0.074;0.016
-0.0738;0.015
-0.0736;0.014
-0.0734;0.013
-0.0732;0.012
-0.073;0.011
-0.0728;0.01
-0.0726;0.01
-0.0724;0.009
-0.0722;0.008
-0.072;0.007
-0.0718;0.007
-0.0716;0.006
-0.0714;0.006
-0.0712;0.005
-0.071;0.005
-0.0708;0.004
-0.0706;0.004
-0.0704;0.003
-0.0702;0.003
-0.07;0.003
-0.0698;0.002
-0.0696;0.002
-0.0694;0.002
-0.0692;0.001
-0.069;0.001
-0.0688;0.001
-0.0686;0.001
-0.0684;0.001
-0.0682;0.001
-0.068;0.0
-0.0678;0.0
-0.0676;0.0
-0.0674;0.0
-0.0672;0.0
-0.067;0.0
-0.0668;0.0
-0.0666;0.0
-0.0664;0.0
-0.0662;0.0
-0.066;0.0
-0.0658;0.0
-0.0656;0.0
-0.0654;0.0
-0.0652;0.0
-0.065;0.0
-0.0648;0.001
-0.0646;0.001
-0.0644;0.001
-0.0642;0.001
-0.064;0.001
-0.0638;0.001
-0.0636;0.001
-0.0634;0.002
-0.0632;0.002
-0.063;0.002
-0.0628;0.002
-0.0626;0.002
-0.0624;0.003
-0.0622;0.003
-0.062;0.003
-0.0618;0.003
-0.0616;0.003
-0.0614;0.004
-0.0612;0.004
-0.061;0.004
-0.0608;0.004
-0.0606;0.005
-0.0604;0.005
-0.0602;0.005
-0.06;0.006
-0.0598;0.006
-0.0596;0.006
-0.0594;0.006
-0.0592;0.007
-0.059;0.007
-0.0588;0.007
-0.0586;0.008
-0.0584;0.008
-0.0582;0.008
-0.058;0.009
-0.0578;0.009
-0.0576;0.009
-0.0574;0.01
-0.0572;0.01
-0.057;0.01
-0.0568;0.011
-0.0566;0.011
-0.0564;0.011
-0.0562;0.012
-0.056;0.012
-0.0558;0.012
-0.0556;0.013
-0.0554;0.013
-0.0552;0.013
-0.055;0.014
-0.0548;0.014
-0.0546;0.014
-0.0544;0.015
-0.0542;0.015
-0.054;0.015
-0.0538;0.016
-0.0536;0.016
-0.0534;0.017
-0.0532;0.017
-0.053;0.017
-0.0528;0.018
-0.0526;0.018
-0.0524;0.018
-0.0522;0.019
-0.052;0.019
-0.0518;0.019
-0.0516;0.02
-0.0514;0.02
-0.0512;0.021
-0.051;0.021
-0.0508;0.021
-0.0506;0.022
-0.0504;0.022
-0.0502;0.022
-0.05;0.023
-0.0498;0.023
-0.0496;0.024
-0.0494;0.024
-0.0492;0.024
-0.049;0.025
-0.0488;0.025
-0.0486;0.026
-0.0484;0.026
-0.0482;0.026
-0.048;0.027
-0.0478;0.027
-0.0476;0.028
-0.0474;0.028
-0.0472;0.028
-0.047;0.029
-0.0468;0.029
-0.0466;0.03
-0.0464;0.03
-0.0462;0.03
-0.046;0.031
-0.0458;0.031
-0.0456;0.032
-0.0454;0.032
-0.0452;0.032
-0.045;0.033
-0.0448;0.033
-0.0446;0.034
-0.0444;0.034
-0.0442;0.034
-0.044;0.035
-0.0438;0.035
-0.0436;0.036
-0.0434;0.036
-0.0432;0.037
-0.043;0.037
-0.0428;0.037
-0.0426;0.038
-0.0424;0.038
-0.0422;0.039
-0.042;0.039
-0.0418;0.04
-0.0416;0.04
-0.0414;0.04
-0.0412;0.041
-0.041;0.041
-0.0408;0.042
-0.0406;0.042
-0.0404;0.043
-0.0402;0.043
-0.04;0.044
-0.0398;0.044
-0.0396;0.045
-0.0394;0.045
-0.0392;0.046
-0.039;0.046
-0.0388;0.047
-0.0386;0.047
-0.0384;0.048
-0.0382;0.048
-0.038;0.049
-0.0378;0.049
-0.0376;0.05
-0.0374;0.05
-0.0372;0.051
-0.037;0.051
-0.0368;0.052
-0.0366;0.052
-0.0364;0.053
-0.0362;0.054
-0.036;0.054
-0.0358;0.055
-0.0356;0.055
-0.0354;0.056
-0.0352;0.057
-0.035;0.057
-0.0348;0.058
-0.0346;0.059
-0.0344;0.059
-0.0342;0.06
-0.034;0.061
-0.0338;0.061
-0.0336;0.062
-0.0334;0.063
-0.0332;0.064
-0.033;0.064
-0.0328;0.065
-0.0326;0.066
-0.0324;0.067
-0.0322;0.068
-0.032;0.069
-0.0318;0.069
-0.0316;0.07
-0.0314;0.071
-0.0312;0.072
-0.031;0.073
-0.0308;0.074
-0.0306;0.075
-0.0304;0.077
-0.0302;0.078
-0.03;0.079
-0.0298;0.08
-0.0296;0.081
-0.0294;0.083
-0.0292;0.084
-0.029;0.085
-0.0288;0.087
-0.0286;0.088
-0.0284;0.09
-0.0282;0.092
-0.028;0.093
-0.0278;0.095
-0.0276;0.097
-0.0274;0.099
-0.0272;0.101
-0.027;0.103
-0.0268;0.105
-0.0266;0.108
-0.0264;0.11
-0.0262;0.113
-0.026;0.116
-0.0258;0.119
-0.0256;0.122
-0.0254;0.125
-0.0252;0.129
-0.025;0.133
-0.0248;0.137
-0.0246;0.141
-0.0244;0.146
-0.0242;0.151
-0.024;0.157
-0.0238;0.163
-0.0236;0.17
-0.0234;0.177
-0.0232;0.185
-0.023;0.193
-0.0228;0.203
-0.0226;0.213
-0.0224;0.225
-0.0222;0.238
-0.022;0.253
-0.0218;0.269
-0.0216;0.288
-0.0214;0.309
-0.0212;0.333
-0.021;0.361
-0.0208;0.393
-0.0206;0.43
-0.0204;0.473
-0.0202;0.523
-0.02;0.58
-0.0198;0.645
-0.0196;0.719
-0.0194;0.797
-0.0192;0.876
-0.019;0.945
-0.0188;0.99
-0.0186;0.997
-0.0184;0.958
-0.0182;0.874
-0.018;0.761
-0.0178;0.639
-0.0176;0.522
-0.0174;0.419
-0.0172;0.334
-0.017;0.265
-0.0168;0.21
-0.0166;0.167
-0.0164;0.133
-0.0162;0.106
-0.016;0.085
-0.0158;0.068
-0.0156;0.054
-0.0154;0.043
-0.0152;0.035
-0.015;0.028
-0.0148;0.022
-0.0146;0.018
-0.0144;0.014
-0.0142;0.011
-0.014;0.008
-0.0138;0.006
-0.0136;0.005
-0.0134;0.004
-0.0132;0.003
-0.013;0.002
-0.0128;0.001
-0.0126;0.001
-0.0124;0.0
-0.0122;0.0
-0.012;0.0
-0.0118;0.0
-0.0116;0.0
-0.0114;0.0
-0.0112;0.0
-0.011;0.0
-0.0108;0.0
-0.0106;0.001
-0.0104;0.001
-0.0102;0.001
-0.01;0.001
-0.0098;0.002
-0.0096;0.002
-0.0094;0.002
-0.0092;0.003
-0.009;0.003
-0.0088;0.003
-0.0086;0.003
-0.0084;0.004
-0.0082;0.004
-0.008;0.004
-0.0078;0.005
-0.0076;0.005
-0.0074;0.005
-0.0072;0.006
-0.007;0.006
-0.0068;0.006
-0.0066;0.007
-0.0064;0.007
-0.0062;0.007
-0.006;0.008
-0.0058;0.008
-0.0056;0.009
-0.0054;0.009
-0.0052;0.01
-0.005;0.01
-0.0048;0.011
-0.0046;0.012
-0.0044;0.013
-0.0042;0.014
-0.004;0.016
-0.0038;0.018
-0.0036;0.021
-0.0034;0.026
-0.0032;0.034
-0.003;0.053
-0.0028;0.115
-0.0026;0.609
-0.0024;0.184
-0.0022;0.021
-0.002;0.004
-0.0018;0.001
-0.0016;0.0
-0.0014;0.0
-0.0012;0.0
-0.001;0.001
-0.0008;0.001
-0.0006;0.001
-0.0004;0.002
-0.0002;0.001
0.0;0.0
0.0002;0.001
0.0004;0.002
0.0006;0.001
0.0008;0.001
0.001;0.001
0.0012;0.0
0.0014;0.0
0.0016;0.0
0.0018;0.001
0.002;0.004
0.0022;0.021
0.0024;0.184
0.0026;0.609
0.0028;0.115
0.003;0.053
0.0032;0.034
0.0034;0.026
0.0036;0.021
0.0038;0.018
0.004;0.016
0.0042;0.014
0.0044;0.013
0.0046;0.012
0.0048;0.011
0.005;0.01
0.0052;0.01
0.0054;0.009
0.0056;0.009
0.0058;0.008
0.006;0.008
0.0062;0.007
0.0064;0.007
0.0066;0.007
0.0068;0.006
0.007;0.006
0.0072;0.006
0.0074;0.005
0.0076;0.005
0.0078;0.005
0.008;0.004
0.0082;0.004
0.0084;0.004
0.0086;0.003
0.0088;0.003
0.009;0.003
0.0092;0.003
0.0094;0.002
0.0096;0.002
0.0098;0.002
0.01;0.001
0.0102;0.001
0.0104;0.001
0.0106;0.001
0.0108;0.0
0.011;0.0
0.0112;0.0
0.0114;0.0
0.0116;0.0
0.0118;0.0
0.012;0.0
0.0122;0.0
0.0124;0.0
0.0126;0.001
0.0128;0.001
0.013;0.002
0.0132;0.003
0.0134;0.004
0.0136;0.005
0.0138;0.006
0.014;0.008
0.0142;0.011
0.0144;0.014
0.0146;0.018
0.0148;0.022
0.015;0.028
0.0152;0.035
0.0154;0.043
0.0156;0.054
0.0158;0.068
0.016;0.085
0.0162;0.106
0.0164;0.133
0.0166;0.167
0.0168;0.21
0.017;0.265
0.0172;0.334
0.0174;0.419
0.0176;0.522
0.0178;0.639
0.018;0.761
0.0182;0.874
0.0184;0.958
0.0186;0.997
0.0188;0.99
0.019;0.945
0.0192;0.876
0.0194;0.797
0.0196;0.719
0.0198;0.645
0.02;0.58
0.0202;0.523
0.0204;0.473
0.0206;0.43
0.0208;0.393
0.021;0.361
0.0212;0.333
0.0214;0.309
0.0216;0.288
0.0218;0.269
0.022;0.253
0.0222;0.238
0.0224;0.225
0.0226;0.213
0.0228;0.203
0.023;0.193
0.0232;0.185
0.0234;0.177
0.0236;0.17
0.0238;0.163
0.024;0.157
0.0242;0.151
0.0244;0.146
0.0246;0.141
0.0248;0.137
0.025;0.133
0.0252;0.129
0.0254;0.125
0.0256;0.122
0.0258;0.119
0.026;0.116
0.0262;0.113
0.0264;0.11
0.0266;0.108
0.0268;0.105
0.027;0.103
0.0272;0.101
0.0274;0.099
0.0276;0.097
0.0278;0.095
0.028;0.093
0.0282;0.092
0.0284;0.09
0.0286;0.088
0.0288;0.087
0.029;0.085
0.0292;0.084
0.0294;0.083
0.0296;0.081
0.0298;0.08
0.03;0.079
0.0302;0.078
0.0304;0.077
0.0306;0.075
0.0308;0.074
0.031;0.073
0.0312;0.072
0.0314;0.071
0.0316;0.07
0.0318;0.069
0.032;0.069
0.0322;0.068
0.0324;0.067
0.0326;0.066
0.0328;0.065
0.033;0.064
0.0332;0.064
0.0334;0.063
0.0336;0.062
0.0338;0.061
0.034;0.061
0.0342;0.06
0.0344;0.059
0.0346;0.059
0.0348;0.058
0.035;0.057
0.0352;0.057
0.0354;0.056
0.0356;0.055
0.0358;0.055
0.036;0.054
0.0362;0.054
0.0364;0.053
0.0366;0.052
0.0368;0.052
0.037;0.051
0.0372;0.051
0.0374;0.05
0.0376;0.05
0.0378;0.049
0.038;0.049
0.0382;0.048
0.0384;0.048
0.0386;0.047
0.0388;0.047
0.039;0.046
0.0392;0.046
0.0394;0.045
0.0396;0.045
0.0398;0.044
0.04;0.044
0.0402;0.043
0.0404;0.043
0.0406;0.042
0.0408;0.042
0.041;0.041
0.0412;0.041
0.0414;0.04
0.0416;0.04
0.0418;0.04
0.042;0.039
0.0422;0.039
0.0424;0.038
0.0426;0.038
0.0428;0.037
0.043;0.037
0.0432;0.037
0.0434;0.036
0.0436;0.036
0.0438;0.035
0.044;0.035
0.0442;0.034
0.0444;0.034
0.0446;0.034
0.0448;0.033
0.045;0.033
0.0452;0.032
0.0454;0.032
0.0456;0.032
0.0458;0.031
0.046;0.031
0.0462;0.03
0.0464;0.03
0.0466;0.03
0.0468;0.029
0.047;0.029
0.0472;0.028
0.0474;0.028
0.0476;0.028
0.0478;0.027
0.048;0.027
0.0482;0.026
0.0484;0.026
0.0486;0.026
0.0488;0.025
0.049;0.025
0.0492;0.024
0.0494;0.024
0.0496;0.024
0.0498;0.023
0.05;0.023
0.0502;0.022
0.0504;0.022
0.0506;0.022
0.0508;0.021
0.051;0.021
0.0512;0.021
0.0514;0.02
0.0516;0.02
0.0518;0.019
0.052;0.019
0.0522;0.019
0.0524;0.018
0.0526;0.018
0.0528;0.018
0.053;0.017
0.0532;0.017
0.0534;0.017
0.0536;0.016
0.0538;0.016
0.054;0.015
0.0542;0.015
0.0544;0.015
0.0546;0.014
0.0548;0.014
0.055;0.014
0.0552;0.013
0.0554;0.013
0.0556;0.013
0.0558;0.012
0.056;0.012
0.0562;0.012
0.0564;0.011
0.0566;0.011
0.0568;0.011
0.057;0.01
0.0572;0.01
0.0574;0.01
0.0576;0.009
0.0578;0.009
0.058;0.009
0.0582;0.008
0.0584;0.008
0.0586;0.008
0.0588;0.007
0.059;0.007
0.0592;0.007
0.0594;0.006
0.0596;0.006
0.0598;0.006
0.06;0.006
0.0602;0.005
0.0604;0.005
0.0606;0.005
0.0608;0.004
0.061;0.004
0.0612;0.004
0.0614;0.004
0.0616;0.003
0.0618;0.003
0.062;0.003
0.0622;0.003
0.0624;0.003
0.0626;0.002
0.0628;0.002
0.063;0.002
0.0632;0.002
0.0634;0.002
0.0636;0.001
0.0638;0.001
0.064;0.001
0.0642;0.001
0.0644;0.001
0.0646;0.001
0.0648;0.001
0.065;0.0
0.0652;0.0
0.0654;0.0
0.0656;0.0
0.0658;0.0
0.066;0.0
0.0662;0.0
0.0664;0.0
0.0666;0.0
0.0668;0.0
0.067;0.0
0.0672;0.0
0.0674;0.0
0.0676;0.0
0.0678;0.0
0.068;0.0
0.0682;0.001
0.0684;0.001
0.0686;0.001
0.0688;0.001
0.069;0.001
0.0692;0.001
0.0694;0.002
0.0696;0.002
0.0698;0.002
0.07;0.003
0.0702;0.003
0.0704;0.003
0.0706;0.004
0.0708;0.004
0.071;0.005
0.0712;0.005
0.0714;0.006
0.0716;0.006
0.0718;0.007
0.072;0.007
0.0722;0.008
0.0724;0.009
0.0726;0.01
0.0728;0.01
0.073;0.011
0.0732;0.012
0.0734;0.013
0.0736;0.014
0.0738;0.015
0.074;0.016
0.0742;0.017
0.0744;0.018
0.0746;0.02
0.0748;0.021
0.075;0.022
0.0752;0.024
0.0754;0.025
0.0756;0.027
0.0758;0.029
0.076;0.03
0.0762;0.032
0.0764;0.034
0.0766;0.036
0.0768;0.038
0.077;0.04
0.0772;0.042
0.0774;0.045
0.0776;0.047
0.0778;0.049
0.078;0.052
0.0782;0.055
0.0784;0.058
0.0786;0.06
0.0788;0.064
0.079;0.067
0.0792;0.07
0.0794;0.073
0.0796;0.077
0.0798;0.081
0.08;0.085
0.0802;0.089
0.0804;0.093
0.0806;0.097
0.0808;0.101
0.081;0.106
0.0812;0.111
0.0814;0.116
0.0816;0.121
0.0818;0.126
0.082;0.132
0.0822;0.138
0.0824;0.143
0.0826;0.15
0.0828;0.156
0.083;0.163
0.0832;0.169
0.0834;0.176
0.0836;0.184
0.0838;0.191
0.084;0.199
0.0842;0.207
0.0844;0.215
0.0846;0.224
0.0848;0.232
0.085;0.241
0.0852;0.251
0.0854;0.26
0.0856;0.27
0.0858;0.28
0.086;0.29
0.0862;0.301
0.0864;0.312
0.0866;0.323
0.0868;0.335
0.087;0.346
0.0872;0.358
0.0874;0.371
0.0876;0.383
0.0878;0.396
0.088;0.409
0.0882;0.423
0.0884;0.436
0.0886;0.45
0.0888;0.464
0.089;0.478
0.0892;0.493
0.0894;0.507
0.0896;0.522
0.0898;0.537
0.09;0.552
0.0902;0.567
0.0904;0.583
0.0906;0.598
0.0908;0.613
0.091;0.629
0.0912;0.644
0.0914;0.66
0.0916;0.675
0.0918;0.69
0.092;0.705
0.0922;0.72
0.0924;0.735
0.0926;0.75
0.0928;0.764
0.093;0.778
0.0932;0.792
0.0934;0.806
0.0936;0.819
0.0938;0.832
0.094;0.845
0.0942;0.857
0.0944;0.868
0.0946;0.88
0.0948;0.891
0.095;0.901
0.0952;0.911
0.0954;0.92
0.0956;0.929
0.0958;0.938
0.096;0.945
0.0962;0.953
0.0964;0.959
0.0966;0.966
0.0968;0.971
0.097;0.977
0.0972;0.981
0.0974;0.985
0.0976;0.989
0.0978;0.992
0.098;0.994
0.0982;0.996
0.0984;0.998
0.0986;0.999
0.0988;1.0
0.099;1.0
0.0992;1.0
0.0994;0.999
0.0996;0.998
0.0998;0.997
0.1;0.995
