energy;conductance
-0.1;0.275
-0.0998;0.276
-0.0996;0.276
-0.0994;0.276
-0.0992;0.277
-0.099;0.277
-0.0988;0.277
-0.0986;0.278
-0.0984;0.278
-0.0982;0.278
-0.098;0.279
-0.0978;0.279
-0.0976;0.279
-0.0974;0.279
-0.0972;0.28
-0.097;0.28
-0.0968;0.28
-0.0966;0.281
-0.0964;0.281
-0.0962;0.281
-0.096;0.282
-0.0958;0.282
-0.0956;0.282
-0.0954;0.283
-0.0952;0.283
-0.095;0.283
-0.0948;0.284
-0.0946;0.284
-0.0944;0.284
-0.0942;0.285
-0.094;0.285
-0.0938;0.285
-0.0936;0.286
-0.0934;0.286
-0.0932;0.286
-0.093;0.286
-0.0928;0.287
-0.0926;0.287
-0.0924;0.287
-0.0922;0.288
-0.092;0.288
-0.0918;0.288
-0.0916;0.289
-0.0914;0.289
-0.0912;0.289
-0.091;0.29
-0.0908;0.29
-0.0906;0.29
-0.0904;0.291
-0.0902;0.291
-0.09;0.291
-0.0898;0.292
-0.0896;0.292
-0.0894;0.292
-0.0892;0.293
-0.089;0.293
-0.0888;0.293
-0.0886;0.294
-0.0884;0.294
-0.0882;0.294
-0.088;0.295
-0.0878;0.295
-0.0876;0.295
-0.0874;0.296
-0.0872;0.296
-0.087;0.296
-0.0868;0.296
-0.0866;0.297
-0.0864;0.297
-0.0862;0.297
-0.086;0.298
-0.0858;0.298
-0.0856;0.298
-0.0854;0.299
-0.0852;0.299
-0.085;0.299
-0.0848;0.3
-0.0846;0.3
-0.0844;0.3
-0.0842;0.301
-0.084;0.301
-0.0838;0.301
-0.0836;0.302
-0.0834;0.302
-0.0832;0.303
-0.083;0.303
-0.0828;0.303
-0.0826;0.304
-0.0824;0.304
-0.0822;0.304
-0.082;0.305
-0.0818;0.305
-0.0816;0.305
-0.0814;0.306
-0.0812;0.306
-0.081;0.306
-0.0808;0.307
-0.0806;0.307
-0.0804;0.307
-0.0802;0.308
-0.08;0.308
-0.0798;0.308
-0.0796;0.309
-0.0794;0.309
-0.0792;0.309
-0.079;0.31
-0.0788;0.31
-0.0786;0.311
-0.0784;0.311
-0.0782;0.311
-0.078;0.312
-0.0778;0.312
-0.0776;0.312
-0.0774;0.313
-0.0772;0.313
-0.077;0.314
-0.0768;0.314
-0.0766;0.314
-0.0764;0.315
-0.0762;0.315
-0.076;0.315
-0.0758;0.316
-0.0756;0.316
-0.0754;0.317
-0.0752;0.317
-0.075;0.317
-0.0748;0.318
-0.0746;0.318
-0.0744;0.318
-0.0742;0.319
-0.074;0.319
-0.0738;0.32
-0.0736;0.32
-0.0734;0.32
-0.0732;0.321
-0.073;0.321
-0.0728;0.322
-0.0726;0.322
-0.0724;0.322
-0.0722;0.323
-0.072;0.323
-0.0718;0.324
-0.0716;0.324
-0.0714;0.325
-0.0712;0.325
-0.071;0.325
-0.0708;0.326
-0.0706;0.326
-0.0704;0.327
-0.0702;0.327
-0.07;0.327
-0.0698;0.328
-0.0696;0.328
-0.0694;0.329
-0.0692;0.329
-0.069;0.33
-0.0688;0.33
-0.0686;0.331
-0.0684;0.331
-0.0682;0.331
-0.068;0.332
-0.0678;0.332
-0.0676;0.333
-0.0674;0.333
-0.0672;0.334
-0.067;0.334
-0.0668;0.335
-0.0666;0.335
-0.0664;0.336
-0.0662;0.336
-0.066;0.337
-0.0658;0.337
-0.0656;0.338
-0.0654;0.338
-0.0652;0.339
-0.065;0.339
-0.0648;0.34
-0.0646;0.34
-0.0644;0.341
-0.0642;0.341
-0.064;0.342
-0.0638;0.342
-0.0636;0.343
-0.0634;0.343
-0.0632;0.344
-0.063;0.344
-0.0628;0.345
-0.0626;0.346
-0.0624;0.346
-0.0622;0.347
-0.062;0.347
-0.0618;0.348
-0.0616;0.348
-0.0614;0.349
-0.0612;0.35
-0.061;0.35
-0.0608;0.351
-0.0606;0.351
-0.0604;0.352
-0.0602;0.353
-0.06;0.353
-0.0598;0.354
-0.0596;0.354
-0.0594;0.355
-0.0592;0.356
-0.059;0.356
-0.0588;0.357
-0.0586;0.358
-0.0584;0.358
-0.0582;0.359
-0.058;0.36
-0.0578;0.36
-0.0576;0.361
-0.0574;0.362
-0.0572;0.363
-0.057;0.363
-0.0568;0.364
-0.0566;0.365
-0.0564;0.365
-0.0562;0.366
-0.056;0.367
-0.0558;0.368
-0.0556;0.369
-0.0554;0.369
-0.0552;0.37
-0.055;0.371
-0.0548;0.372
-0.0546;0.373
-0.0544;0.373
-0.0542;0.374
-0.054;0.375
-0.0538;0.376
-0.0536;0.377
-0.0534;0.378
-0.0532;0.379
-0.053;0.379
-0.0528;0.38
-0.0526;0.381
-0.0524;0.382
-0.0522;0.383
-0.052;0.384
-0.0518;0.385
-0.0516;0.386
-0.0514;0.387
-0.0512;0.388
-0.051;0.389
-0.0508;0.39
-0.0506;0.391
-0.0504;0.392
-0.0502;0.394
-0.05;0.395
-0.0498;0.396
-0.0496;0.397
-0.0494;0.398
-0.0492;0.399
-0.049;0.4
-0.0488;0.402
-0.0486;0.403
-0.0484;0.404
-0.0482;0.405
-0.048;0.407
-0.0478;0.408
-0.0476;0.409
-0.0474;0.411
-0.0472;0.412
-0.047;0.414
-0.0468;0.415
-0.0466;0.416
-0.0464;0.418
-0.0462;0.419
-0.046;0.421
-0.0458;0.422
-0.0456;0.424
-0.0454;0.426
-0.0452;0.427
-0.045;0.429
-0.0448;0.431
-0.0446;0.432
-0.0444;0.434
-0.0442;0.436
-0.044;0.438
-0.0438;0.44
-0.0436;0.442
-0.0434;0.444
-0.0432;0.446
-0.043;0.448
-0.0428;0.45
-0.0426;0.452
-0.0424;0.454
-0.0422;0.456
-0.042;0.458
-0.0418;0.461
-0.0416;0.463
-0.0414;0.466
-0.0412;0.468
-0.041;0.47
-0.0408;0.473
-0.0406;0.476
-0.0404;0.478
-0.0402;0.481
-0.04;0.484
-0.0398;0.487
-0.0396;0.49
-0.0394;0.493
-0.0392;0.496
-0.039;0.499
-0.0388;0.502
-0.0386;0.506
-0.0384;0.509
-0.0382;0.513
-0.038;0.516
-0.0378;0.52
-0.0376;0.524
-0.0374;0.528
-0.0372;0.532
-0.037;0.536
-0.0368;0.54
-0.0366;0.544
-0.0364;0.549
-0.0362;0.553
-0.036;0.558
-0.0358;0.563
-0.0356;0.568
-0.0354;0.573
-0.0352;0.578
-0.035;0.584
-0.0348;0.589
-0.0346;0.595
-0.0344;0.601
-0.0342;0.607
-0.034;0.614
-0.0338;0.62
-0.0336;0.627
-0.0334;0.634
-0.0332;0.641
-0.033;0.648
-0.0328;0.656
-0.0326;0.664
-0.0324;0.672
-0.0322;0.681
-0.032;0.689
-0.0318;0.698
-0.0316;0.707
-0.0314;0.717
-0.0312;0.727
-0.031;0.737
-0.0308;0.747
-0.0306;0.758
-0.0304;0.769
-0.0302;0.78
-0.03;0.792
-0.0298;0.803
-0.0296;0.816
-0.0294;0.828
-0.0292;0.841
-0.029;0.853
-0.0288;0.866
-0.0286;0.879
-0.0284;0.892
-0.0282;0.905
-0.028;0.918
-0.0278;0.93
-0.0276;0.942
-0.0274;0.954
-0.0272;0.964
-0.027;0.974
-0.0268;0.983
-0.0266;0.99
-0.0264;0.995
-0.0262;0.999
-0.026;1.0
-0.0258;0.998
-0.0256;0.994
-0.0254;0.986
-0.0252;0.975
-0.025;0.96
-0.0248;0.941
-0.0246;0.918
-0.0244;0.892
-0.0242;0.861
-0.024;0.827
-0.0238;0.79
-0.0236;0.751
-0.0234;0.709
-0.0232;0.665
-0.023;0.621
-0.0228;0.576
-0.0226;0.532
-0.0224;0.488
-0.0222;0.446
-0.022;0.405
-0.0218;0.366
-0.0216;0.33
-0.0214;0.295
-0.0212;0.263
-0.021;0.234
-0.0208;0.207
-0.0206;0.182
-0.0204;0.16
-0.0202;0.14
-0.02;0.121
-0.0198;0.105
-0.0196;0.09
-0.0194;0.077
-0.0192;0.066
-0.019;0.056
-0.0188;0.047
-0.0186;0.039
-0.0184;0.032
-0.0182;0.026
-0.018;0.021
-0.0178;0.017
-0.0176;0.013
-0.0174;0.01
-0.0172;0.007
-0.017;0.005
-0.0168;0.004
-0.0166;0.002
-0.0164;0.001
-0.0162;0.001
-0.016;0.0
-0.0158;0.0
-0.0156;0.0
-0.0154;0.0
-0.0152;0.001
-0.015;0.001
-0.0148;0.002
-0.0146;0.002
-0.0144;0.003
-0.0142;0.004
-0.014;0.005
-0.0138;0.006
-0.0136;0.007
-0.0134;0.008
-0.0132;0.009
-0.013;0.01
-0.0128;0.012
-0.0126;0.013
-0.0124;0.014
-0.0122;0.015
-0.012;0.017
-0.0118;0.018
-0.0116;0.019
-0.0114;0.02
-0.0112;0.021
-0.011;0.023
-0.0108;0.024
-0.0106;0.025
-0.0104;0.026
-0.0102;0.027
-0.01;0.028
-0.0098;0.03
-0.0096;0.031
-0.0094;0.032
-0.0092;0.033
-0.009;0.034
-0.0088;0.035
-0.0086;0.036
-0.0084;0.037
-0.0082;0.038
-0.008;0.039
-0.0078;0.04
-0.0076;0.04
-0.0074;0.041
-0.0072;0.042
-0.007;0.043
-0.0068;0.044
-0.0066;0.045
-0.0064;0.045
-0.0062;0.046
-0.006;0.047
-0.0058;0.047
-0.0056;0.048
-0.0054;0.049
-0.0052;0.049
-0.005;0.05
-0.0048;0.05
-0.0046;0.051
-0.0044;0.051
-0.0042;0.052
-0.004;0.052
-0.0038;0.053
-0.0036;0.053
-0.0034;0.054
-0.0032;0.054
-0.003;0.054
-0.0028;0.055
-0.0026;0.055
-0.0024;0.055
-0.0022;0.056
-0.002;0.056
-0.0018;0.056
-0.0016;0.056
-0.0014;0.056
-0.0012;0.056
-0.001;0.057
-0.0008;0.057
-0.0006;0.057
-0.0004;0.057
-0.0002;0.057
0.0;0.057
0.0002;0.057
0.0004;0.057
0.0006;0.057
0.0008;0.057
0.001;0.057
0.0012;0.056
0.0014;0.056
0.0016;0.056
0.0018;0.056
0.002;0.056
0.0022;0.056
0.0024;0.055
0.0026;0.055
0.0028;0.055
0.003;0.054
0.0032;0.054
0.0034;0.054
0.0036;0.053
0.0038;0.053
0.004;0.052
0.0042;0.052
0.0044;0.051
0.0046;0.051
0.0048;0.05
0.005;0.05
0.0052;0.049
0.0054;0.049
0.0056;0.048
0.0058;0.047
0.006;0.047
0.0062;0.046
0.0064;0.045
0.0066;0.045
0.0068;0.044
0.007;0.043
0.0072;0.042
0.0074;0.041
0.0076;0.04
0.0078;0.04
0.008;0.039
0.0082;0.038
0.0084;0.037
0.0086;0.036
0.0088;0.035
0.009;0.034
0.0092;0.033
0.0094;0.032
0.0096;0.031
0.0098;0.03
0.01;0.028
0.0102;0.027
0.0104;0.026
0.0106;0.025
0.0108;0.024
0.011;0.023
0.0112;0.021
0.0114;0.02
0.0116;0.019
0.0118;0.018
0.012;0.017
0.0122;0.015
0.0124;0.014
0.0126;0.013
0.0128;0.012
0.013;0.01
0.0132;0.009
0.0134;0.008
0.0136;0.007
0.0138;0.006
0.014;0.005
0.0142;0.004
0.0144;0.003
0.0146;0.002
0.0148;0.002
0.015;0.001
0.0152;0.001
0.0154;0.0
0.0156;0.0
0.0158;0.0
0.016;0.0
0.0162;0.001
0.0164;0.001
0.0166;0.002
0.0168;0.004
0.017;0.005
0.0172;0.007
0.0174;0.01
0.0176;0.013
0.0178;0.017
0.018;0.021
0.0182;0.026
0.0184;0.032
0.0186;0.039
0.0188;0.047
0.019;0.056
0.0192;0.066
0.0194;0.077
0.0196;0.09
0.0198;0.105
0.02;0.121
0.0202;0.14
0.0204;0.16
0.0206;0.182
0.0208;0.207
0.021;0.234
0.0212;0.263
0.0214;0.295
0.0216;0.33
0.0218;0.366
0.022;0.405
0.0222;0.446
0.0224;0.488
0.0226;0.532
0.0228;0.576
0.023;0.621
0.0232;0.665
0.0234;0.709
0.0236;0.751
0.0238;0.79
0.024;0.827
0.0242;0.861
0.0244;0.892
0.0246;0.918
0.0248;0.941
0.025;0.96
0.0252;0.975
0.0254;0.986
0.0256;0.994
0.0258;0.998
0.026;1.0
0.0262;0.999
0.0264;0.995
0.0266;0.99
0.0268;0.983
0.027;0.974
0.0272;0.964
0.0274;0.954
0.0276;0.942
0.0278;0.93
0.028;0.918
0.0282;0.905
0.0284;0.892
0.0286;0.879
0.0288;0.866
0.029;0.853
0.0292;0.841
0.0294;0.828
0.0296;0.816
0.0298;0.803
0.03;0.792
0.0302;0.78
0.0304;0.769
0.0306;0.758
0.0308;0.747
0.031;0.737
0.0312;0.727
0.0314;0.717
0.0316;0.707
0.0318;0.698
0.032;0.689
0.0322;0.681
0.0324;0.672
0.0326;0.664
0.0328;0.656
0.033;0.648
0.0332;0.641
0.0334;0.634
0.0336;0.627
0.0338;0.62
0.034;0.614
0.0342;0.607
0.0344;0.601
0.0346;0.595
0.0348;0.589
0.035;0.584
0.0352;0.578
0.0354;0.573
0.0356;0.568
0.0358;0.563
0.036;0.558
0.0362;0.553
0.0364;0.549
0.0366;0.544
0.0368;0.54
0.037;0.536
0.0372;0.532
0.0374;0.528
0.0376;0.524
0.0378;0.52
0.038;0.516
0.0382;0.513
0.0384;0.509
0.0386;0.506
0.0388;0.502
0.039;0.499
0.0392;0.496
0.0394;0.493
0.0396;0.49
0.0398;0.487
0.04;0.484
0.0402;0.481
0.0404;0.478
0.0406;0.476
0.0408;0.473
0.041;0.47
0.0412;0.468
0.0414;0.466
0.0416;0.463
0.0418;0.461
0.042;0.458
0.0422;0.456
0.0424;0.454
0.0426;0.452
0.0428;0.45
0.043;0.448
0.0432;0.446
0.0434;0.444
0.0436;0.442
0.0438;0.44
0.044;0.438
0.0442;0.436
0.0444;0.434
0.0446;0.432
0.0448;0.431
0.045;0.429
0.0452;0.427
0.0454;0.426
0.0456;0.424
0.0458;0.422
0.046;0.421
0.0462;0.419
0.0464;0.418
0.0466;0.416
0.0468;0.415
0.047;0.414
0.0472;0.412
0.0474;0.411
0.0476;0.409
0.0478;0.408
0.048;0.407
0.0482;0.405
0.0484;0.404
0.0486;0.403
0.0488;0.402
0.049;0.4
0.0492;0.399
0.0494;0.398
0.0496;0.397
0.0498;0.396
0.05;0.395
0.0502;0.394
0.0504;0.392
0.0506;0.391
0.0508;0.39
0.051;0.389
0.0512;0.388
0.0514;0.387
0.0516;0.386
0.0518;0.385
0.052;0.384
0.0522;0.383
0.0524;0.382
0.0526;0.381
0.0528;0.38
0.053;0.379
0.0532;0.379
0.0534;0.378
0.0536;0.377
0.0538;0.376
0.054;0.375
0.0542;0.374
0.0544;0.373
0.0546;0.373
0.0548;0.372
0.055;0.371
0.0552;0.37
0.0554;0.369
0.0556;0.369
0.0558;0.368
0.056;0.367
0.0562;0.366
0.0564;0.365
0.0566;0.365
0.0568;0.364
0.057;0.363
0.0572;0.363
0.0574;0.362
0.0576;0.361
0.0578;0.36
0.058;0.36
0.0582;0.359
0.0584;0.358
0.0586;0.358
0.0588;0.357
0.059;0.356
0.0592;0.356
0.0594;0.355
0.0596;0.354
0.0598;0.354
0.06;0.353
0.0602;0.353
0.0604;0.352
0.0606;0.351
0.0608;0.351
0.061;0.35
0.0612;0.35
0.0614;0.349
0.0616;0.348
0.0618;0.348
0.062;0.347
0.0622;0.347
0.0624;0.346
0.0626;0.346
0.0628;0.345
0.063;0.344
0.0632;0.344
0.0634;0.343
0.0636;0.343
0.0638;0.342
0.064;0.342
0.0642;0.341
0.0644;0.341
0.0646;0.34
0.0648;0.34
0.065;0.339
0.0652;0.339
0.0654;0.338
0.0656;0.338
0.0658;0.337
0.066;0.337
0.0662;0.336
0.0664;0.336
0.0666;0.335
0.0668;0.335
0.067;0.334
0.0672;0.334
0.0674;0.333
0.0676;0.333
0.0678;0.332
0.068;0.332
0.0682;0.331
0.0684;0.331
0.0686;0.331
0.0688;0.33
0.069;0.33
0.0692;0.329
0.0694;0.329
0.0696;0.328
0.0698;0.328
0.07;0.327
0.0702;0.327
0.0704;0.327
0.0706;0.326
0.0708;0.326
0.071;0.325
0.0712;0.325
0.0714;0.325
0.0716;0.324
0.0718;0.324
0.072;0.323
0.0722;0.323
0.0724;0.322
0.0726;0.322
0.0728;0.322
0.073;0.321
0.0732;0.321
0.0734;0.32
0.0736;0.32
0.0738;0.32
0.074;0.319
0.0742;0.319
0.0744;0.318
0.0746;0.318
0.0748;0.318
0.075;0.317
0.0752;0.317
0.0754;0.317
0.0756;0.316
0.0758;0.316
0.076;0.315
0.0762;0.315
0.0764;0.315
0.0766;0.314
0.0768;0.314
0.077;0.314
0.0772;0.313
0.0774;0.313
0.0776;0.312
0.0778;0.312
0.078;0.312
0.0782;0.311
0.0784;0.311
0.0786;0.311
0.0788;0.31
0.079;0.31
0.0792;0.309
0.0794;0.309
0.0796;0.309
0.0798;0.308
0.08;0.308
0.0802;0.308
0.0804;0.307
0.0806;0.307
0.0808;0.307
0.081;0.306
0.0812;0.306
0.0814;0.306
0.0816;0.305
0.0818;0.305
0.082;0.305
0.0822;0.304
0.0824;0.304
0.0826;0.304
0.0828;0.303
0.083;0.303
0.0832;0.303
0.0834;0.302
0.0836;0.302
0.0838;0.301
0.084;0.301
0.0842;0.301
0.0844;0.3
0.0846;0.3
0.0848;0.3
0.085;0.299
0.0852;0.299
0.0854;0.299
0.0856;0.298
0.0858;0.298
0.086;0.298
0.0862;0.297
0.0864;0.297
0.0866;0.297
0.0868;0.296
0.087;0.296
0.0872;0.296
0.0874;0.296
0.0876;0.295
0.0878;0.295
0.088;0.295
0.0882;0.294
0.0884;0.294
0.0886;0.294
0.0888;0.293
0.089;0.293
0.0892;0.293
0.0894;0.292
0.0896;0.292
0.0898;0.292
0.09;0.291
0.0902;0.291
0.0904;0.291
0.0906;0.29
0.0908;0.29
0.091;0.29
0.0912;0.289
0.0914;0.289
0.0916;0.289
0.0918;0.288
0.092;0.288
0.0922;0.288
0.0924;0.287
0.0926;0.287
0.0928;0.287
0.093;0.286
0.0932;0.286
0.0934;0.286
0.0936;0.286
0.0938;0.285
0.094;0.285
0.0942;0.285
0.0944;0.284
0.0946;0.284
0.0948;0.284
0.095;0.283
0.0952;0.283
0.0954;0.283
0.0956;0.282
0.0958;0.282
0.096;0.282
0.0962;0.281
0.0964;0.281
0.0966;0.281
0.0968;0.28
0.097;0.28
0.0972;0.28
0.0974;0.279
0.0976;0.279
0.0978;0.279
0.098;0.279
0.0982;0.278
0.0984;0.278
0.0986;0.278
0.0988;0.277
0.099;0.277
0.0992;0.277
0.0994;0.276
0.0996;0.276
0.0998;0.276
0.1;0.275
