energy;conductance
-0.1;0.002
-0.0998;0.001
-0.0996;0.001
-0.0994;0.0
-0.0992;0.0
-0.099;0.0
-0.0988;0.0
-0.0986;0.001
-0.0984;0.002
-0.0982;0.002
-0.098;0.003
-0.0978;0.005
-0.0976;0.006
-0.0974;0.008
-0.0972;0.01
-0.097;0.012
-0.0968;0.014
-0.0966;0.016
-0.0964;0.018
-0.0962;0.021
-0.096;0.024
-0.0958;0.026
-0.0956;0.029
-0.0954;0.032
-0.0952;0.035
-0.095;0.039
-0.0948;0.042
-0.0946;0.045
-0.0944;0.049
-0.0942;0.053
-0.094;0.056
-0.0938;0.06
-0.0936;0.064
-0.0934;0.068
-0.0932;0.072
-0.093;0.076
-0.0928;0.08
-0.0926;0.084
-0.0924;0.088
-0.0922;0.092
-0.092;0.097
-0.0918;0.101
-0.0916;0.105
-0.0914;0.11
-0.0912;0.114
-0.091;0.118
-0.0908;0.123
-0.0906;0.127
-0.0904;0.132
-0.0902;0.136
-0.09;0.141
-0.0898;0.145
-0.0896;0.15
-0.0894;0.154
-0.0892;0.159
-0.089;0.163
-0.0888;0.168
-0.0886;0.172
-0.0884;0.176
-0.0882;0.181
-0.088;0.185
-0.0878;0.19
-0.0876;0.194
-0.0874;0.199
-0.0872;0.203
-0.087;0.207
-0.0868;0.212
-0.0866;0.216
-0.0864;0.22
-0.0862;0.225
-0.086;0.229
-0.0858;0.233
-0.0856;0.237
-0.0854;0.242
-0.0852;0.246
-0.085;0.25
-0.0848;0.254
-0.0846;0.258
-0.0844;0.262
-0.0842;0.266
-0.084;0.27
-0.0838;0.274
-0.0836;0.278
-0.0834;0.282
-0.0832;0.286
-0.083;0.29
-0.0828;0.294
-0.0826;0.298
-0.0824;0.302
-0.0822;0.305
-0.082;0.309
-0.0818;0.313
-0.0816;0.317
-0.0814;0.32
-0.0812;0.324
-0.081;0.328
-0.0808;0.331
-0.0806;0.335
-0.0804;0.338
-0.0802;0.342
-0.08;0.345
-0.0798;0.349
-0.0796;0.352
-0.0794;0.355
-0.0792;0.359
-0.079;0.362
-0.0788;0.365
-0.0786;0.369
-0.0784;0.372
-0.0782;0.375
-0.078;0.378
-0.0778;0.381
-0.0776;0.385
-0.0774;0.388
-0.0772;0.391
-0.077;0.394
-0.0768;0.397
-0.0766;0.4
-0.0764;0.403
-0.0762;0.406
-0.076;0.409
-0.0758;0.412
-0.0756;0.414
-0.0754;0.417
-0.0752;0.42
-0.075;0.423
-0.0748;0.426
-0.0746;0.428
-0.0744;0.431
-0.0742;0.434
-0.074;0.437
-0.0738;0.439
-0.0736;0.442
-0.0734;0.444
-0.0732;0.447
-0.073;0.45
-0.0728;0.452
-0.0726;0.455
-0.0724;0.457
-0.0722;0.46
-0.072;0.462
-0.0718;0.465
-0.0716;0.467
-0.0714;0.469
-0.0712;0.472
-0.071;0.474
-0.0708;0.476
-0.0706;0.479
-0.0704;0.481
-0.0702;0.483
-0.07;0.486
-0.0698;0.488
-0.0696;0.49
-0.0694;0.492
-0.0692;0.494
-0.069;0.497
-0.0688;0.499
-0.0686;0.501
-0.0684;0.503
-0.0682;0.505
-0.068;0.507
-0.0678;0.509
-0.0676;0.511
-0.0674;0.513
-0.0672;0.515
-0.067;0.517
-0.0668;0.519
-0.0666;0.521
-0.0664;0.523
-0.0662;0.525
-0.066;0.527
-0.0658;0.529
-0.0656;0.531
-0.0654;0.533
-0.0652;0.535
-0.065;0.537
-0.0648;0.538
-0.0646;0.54
-0.0644;0.542
-0.0642;0.544
-0.064;0.546
-0.0638;0.547
-0.0636;0.549
-0.0634;0.551
-0.0632;0.553
-0.063;0.554
-0.0628;0.556
-0.0626;0.558
-0.0624;0.56
-0.0622;0.561
-0.062;0.563
-0.0618;0.565
-0.0616;0.566
-0.0614;0.568
-0.0612;0.57
-0.061;0.571
-0.0608;0.573
-0.0606;0.574
-0.0604;0.576
-0.0602;0.578
-0.06;0.579
-0.0598;0.581
-0.0596;0.582
-0.0594;0.584
-0.0592;0.585
-0.059;0.587
-0.0588;0.588
-0.0586;0.59
-0.0584;0.591
-0.0582;0.593
-0.058;0.594
-0.0578;0.596
-0.0576;0.597
-0.0574;0.599
-0.0572;0.6
-0.057;0.602
-0.0568;0.603
-0.0566;0.604
-0.0564;0.606
-0.0562;0.607
-0.056;0.609
-0.0558;0.61
-0.0556;0.612
-0.0554;0.613
-0.0552;0.614
-0.055;0.616
-0.0548;0.617
-0.0546;0.618
-0.0544;0.62
-0.0542;0.621
-0.054;0.623
-0.0538;0.624
-0.0536;0.625
-0.0534;0.627
-0.0532;0.628
-0.053;0.629
-0.0528;0.631
-0.0526;0.632
-0.0524;0.633
-0.0522;0.634
-0.052;0.636
-0.0518;0.637
-0.0516;0.638
-0.0514;0.64
-0.0512;0.641
-0.051;0.642
-0.0508;0.644
-0.0506;0.645
-0.0504;0.646
-0.0502;0.647
-0.05;0.649
-0.0498;0.65
-0.0496;0.651
-0.0494;0.653
-0.0492;0.654
-0.049;0.655
-0.0488;0.656
-0.0486;0.658
-0.0484;0.659
-0.0482;0.66
-0.048;0.662
-0.0478;0.663
-0.0476;0.664
-0.0474;0.665
-0.0472;0.667
-0.047;0.668
-0.0468;0.669
-0.0466;0.671
-0.0464;0.672
-0.0462;0.673
-0.046;0.674
-0.0458;0.676
-0.0456;0.677
-0.0454;0.678
-0.0452;0.68
-0.045;0.681
-0.0448;0.682
-0.0446;0.684
-0.0444;0.685
-0.0442;0.686
-0.044;0.688
-0.0438;0.689
-0.0436;0.69
-0.0434;0.692
-0.0432;0.693
-0.043;0.694
-0.0428;0.696
-0.0426;0.697
-0.0424;0.698
-0.0422;0.7
-0.042;0.701
-0.0418;0.703
-0.0416;0.704
-0.0414;0.706
-0.0412;0.707
-0.041;0.708
-0.0408;0.71
-0.0406;0.711
-0.0404;0.713
-0.0402;0.714
-0.04;0.716
-0.0398;0.717
-0.0396;0.719
-0.0394;0.72
-0.0392;0.722
-0.039;0.724
-0.0388;0.725
-0.0386;0.727
-0.0384;0.728
-0.0382;0.73
-0.038;0.732
-0.0378;0.733
-0.0376;0.735
-0.0374;0.737
-0.0372;0.738
-0.037;0.74
-0.0368;0.742
-0.0366;0.744
-0.0364;0.746
-0.0362;0.748
-0.036;0.749
-0.0358;0.751
-0.0356;0.753
-0.0354;0.755
-0.0352;0.757
-0.035;0.759
-0.0348;0.761
-0.0346;0.764
-0.0344;0.766
-0.0342;0.768
-0.034;0.77
-0.0338;0.772
-0.0336;0.775
-0.0334;0.777
-0.0332;0.779
-0.033;0.782
-0.0328;0.784
-0.0326;0.787
-0.0324;0.789
-0.0322;0.792
-0.032;0.795
-0.0318;0.797
-0.0316;0.8
-0.0314;0.803
-0.0312;0.806
-0.031;0.809
-0.0308;0.812
-0.0306;0.815
-0.0304;0.819
-0.0302;0.822
-0.03;0.825
-0.0298;0.829
-0.0296;0.832
-0.0294;0.836
-0.0292;0.84
-0.029;0.844
-0.0288;0.848
-0.0286;0.852
-0.0284;0.856
-0.0282;0.86
-0.028;0.864
-0.0278;0.869
-0.0276;0.874
-0.0274;0.878
-0.0272;0.883
-0.027;0.888
-0.0268;0.893
-0.0266;0.899
-0.0264;0.904
-0.0262;0.909
-0.026;0.915
-0.0258;0.921
-0.0256;0.927
-0.0254;0.933
-0.0252;0.939
-0.025;0.945
-0.0248;0.951
-0.0246;0.957
-0.0244;0.963
-0.0242;0.969
-0.024;0.975
-0.0238;0.98
-0.0236;0.985
-0.0234;0.99
-0.0232;0.994
-0.023;0.997
-0.0228;0.999
-0.0226;1.0
-0.0224;0.999
-0.0222;0.996
-0.022;0.99
-0.0218;0.981
-0.0216;0.968
-0.0214;0.951
-0.0212;0.929
-0.021;0.9
-0.0208;0.865
-0.0206;0.822
-0.0204;0.773
-0.0202;0.715
-0.02;0.651
-0.0198;0.582
-0.0196;0.508
-0.0194;0.433
-0.0192;0.359
-0.019;0.289
-0.0188;0.224
-0.0186;0.167
-0.0184;0.118
-0.0182;0.079
-0.018;0.048
-0.0178;0.026
-0.0176;0.011
-0.0174;0.003
-0.0172;0.0
-0.017;0.002
-0.0168;0.007
-0.0166;0.015
-0.0164;0.024
-0.0162;0.036
-0.016;0.048
-0.0158;0.061
-0.0156;0.075
-0.0154;0.088
-0.0152;0.102
-0.015;0.115
-0.0148;0.128
-0.0146;0.141
-0.0144;0.154
-0.0142;0.166
-0.014;0.177
-0.0138;0.189
-0.0136;0.2
-0.0134;0.21
-0.0132;0.22
-0.013;0.23
-0.0128;0.239
-0.0126;0.248
-0.0124;0.257
-0.0122;0.265
-0.012;0.273
-0.0118;0.28
-0.0116;0.287
-0.0114;0.294
-0.0112;0.301
-0.011;0.308
-0.0108;0.314
-0.0106;0.32
-0.0104;0.326
-0.0102;0.331
-0.01;0.337
-0.0098;0.342
-0.0096;0.347
-0.0094;0.352
-0.0092;0.356
-0.009;0.361
-0.0088;0.365
-0.0086;0.37
-0.0084;0.374
-0.0082;0.378
-0.008;0.382
-0.0078;0.386
-0.0076;0.39
-0.0074;0.394
-0.0072;0.398
-0.007;0.402
-0.0068;0.406
-0.0066;0.41
-0.0064;0.414
-0.0062;0.418
-0.006;0.422
-0.0058;0.427
-0.0056;0.431
-0.0054;0.436
-0.0052;0.442
-0.005;0.447
-0.0048;0.454
-0.0046;0.461
-0.0044;0.469
-0.0042;0.478
-0.004;0.489
-0.0038;0.503
-0.0036;0.52
-0.0034;0.542
-0.0032;0.571
-0.003;0.613
-0.0028;0.674
-0.0026;0.772
-0.0024;0.924
-0.0022;0.946
-0.002;0.222
-0.0018;0.0
-0.0016;0.052
-0.0014;0.11
-0.0012;0.152
-0.001;0.181
-0.0008;0.202
-0.0006;0.219
-0.0004;0.237
-0.0002;0.333
0.0;0.053
0.0002;0.333
0.0004;0.237
0.0006;0.219
0.0008;0.202
0.001;0.181
0.0012;0.152
0.0014;0.11
0.0016;0.052
0.0018;0.0
0.002;0.222
0.0022;0.946
0.0024;0.924
0.0026;0.772
0.0028;0.674
0.003;0.613
0.0032;0.571
0.0034;0.542
0.0036;0.52
0.0038;0.503
0.004;0.489
0.0042;0.478
0.0044;0.469
0.0046;0.461
0.0048;0.454
0.005;0.447
0.0052;0.442
0.0054;0.436
0.0056;0.431
0.0058;0.427
0.006;0.422
0.0062;0.418
0.0064;0.414
0.0066;0.41
0.0068;0.406
0.007;0.402
0.0072;0.398
0.0074;0.394
0.0076;0.39
0.0078;0.386
0.008;0.382
0.0082;0.378
0.0084;0.374
0.0086;0.37
0.0088;0.365
0.009;0.361
0.0092;0.356
0.0094;0.352
0.0096;0.347
0.0098;0.342
0.01;0.337
0.0102;0.331
0.0104;0.326
0.0106;0.32
0.0108;0.314
0.011;0.308
0.0112;0.301
0.0114;0.294
0.0116;0.287
0.0118;0.28
0.012;0.273
0.0122;0.265
0.0124;0.257
0.0126;0.248
0.0128;0.239
0.013;0.23
0.0132;0.22
0.0134;0.21
0.0136;0.2
0.0138;0.189
0.014;0.177
0.0142;0.166
0.0144;0.154
0.0146;0.141
0.0148;0.128
0.015;0.115
0.0152;0.102
0.0154;0.088
0.0156;0.075
0.0158;0.061
0.016;0.048
0.0162;0.036
0.0164;0.024
0.0166;0.015
0.0168;0.007
0.017;0.002
0.0172;0.0
0.0174;0.003
0.0176;0.011
0.0178;0.026
0.018;0.048
0.0182;0.079
0.0184;0.118
0.0186;0.167
0.0188;0.224
0.019;0.289
0.0192;0.359
0.0194;0.433
0.0196;0.508
0.0198;0.582
0.02;0.651
0.0202;0.715
0.0204;0.773
0.0206;0.822
0.0208;0.865
0.021;0.9
0.0212;0.929
0.0214;0.951
0.0216;0.968
0.0218;0.981
0.022;0.99
0.0222;0.996
0.0224;0.999
0.0226;1.0
0.0228;0.999
0.023;0.997
0.0232;0.994
0.0234;0.99
0.0236;0.985
0.0238;0.98
0.024;0.975
0.0242;0.969
0.0244;0.963
0.0246;0.957
0.0248;0.951
0.025;0.945
0.0252;0.939
0.0254;0.933
0.0256;0.927
0.0258;0.921
0.026;0.915
0.0262;0.909
0.0264;0.904
0.0266;0.899
0.0268;0.893
0.027;0.888
0.0272;0.883
0.0274;0.878
0.0276;0.874
0.0278;0.869
0.028;0.864
0.0282;0.86
0.0284;0.856
0.0286;0.852
0.0288;0.848
0.029;0.844
0.0292;0.84
0.0294;0.836
0.0296;0.832
0.0298;0.829
0.03;0.825
0.0302;0.822
0.0304;0.819
0.0306;0.815
0.0308;0.812
0.031;0.809
0.0312;0.806
0.0314;0.803
0.0316;0.8
0.0318;0.797
0.032;0.795
0.0322;0.792
0.0324;0.789
0.0326;0.787
0.0328;0.784
0.033;0.782
0.0332;0.779
0.0334;0.777
0.0336;0.775
0.0338;0.772
0.034;0.77
0.0342;0.768
0.0344;0.766
0.0346;0.764
0.0348;0.761
0.035;0.759
0.0352;0.757
0.0354;0.755
0.0356;0.753
0.0358;0.751
0.036;0.749
0.0362;0.748
0.0364;0.746
0.0366;0.744
0.0368;0.742
0.037;0.74
0.0372;0.738
0.0374;0.737
0.0376;0.735
0.0378;0.733
0.038;0.732
0.0382;0.73
0.0384;0.728
0.0386;0.727
0.0388;0.725
0.039;0.724
0.0392;0.722
0.0394;0.72
0.0396;0.719
0.0398;0.717
0.04;0.716
0.0402;0.714
0.0404;0.713
0.0406;0.711
0.0408;0.71
0.041;0.708
0.0412;0.707
0.0414;0.706
0.0416;0.704
0.0418;0.703
0.042;0.701
0.0422;0.7
0.0424;0.698
0.0426;0.697
0.0428;0.696
0.043;0.694
0.0432;0.693
0.0434;0.692
0.0436;0.69
0.0438;0.689
0.044;0.688
0.0442;0.686
0.0444;0.685
0.0446;0.684
0.0448;0.682
0.045;0.681
0.0452;0.68
0.0454;0.678
0.0456;0.677
0.0458;0.676
0.046;0.674
0.0462;0.673
0.0464;0.672
0.0466;0.671
0.0468;0.669
0.047;0.668
0.0472;0.667
0.0474;0.665
0.0476;0.664
0.0478;0.663
0.048;0.662
0.0482;0.66
0.0484;0.659
0.0486;0.658
0.0488;0.656
0.049;0.655
0.0492;0.654
0.0494;0.653
0.0496;0.651
0.0498;0.65
0.05;0.649
0.0502;0.647
0.0504;0.646
0.0506;0.645
0.0508;0.644
0.051;0.642
0.0512;0.641
0.0514;0.64
0.0516;0.638
0.0518;0.637
0.052;0.636
0.0522;0.634
0.0524;0.633
0.0526;0.632
0.0528;0.631
0.053;0.629
0.0532;0.628
0.0534;0.627
0.0536;0.625
0.0538;0.624
0.054;0.623
0.0542;0.621
0.0544;0.62
0.0546;0.618
0.0548;0.617
0.055;0.616
0.0552;0.614
0.0554;0.613
0.0556;0.612
0.0558;0.61
0.056;0.609
0.0562;0.607
0.0564;0.606
0.0566;0.604
0.0568;0.603
0.057;0.602
0.0572;0.6
0.0574;0.599
0.0576;0.597
0.0578;0.596
0.058;0.594
0.0582;0.593
0.0584;0.591
0.0586;0.59
0.0588;0.588
0.059;0.587
0.0592;0.585
0.0594;0.584
0.0596;0.582
0.0598;0.581
0.06;0.579
0.0602;0.578
0.0604;0.576
0.0606;0.574
0.0608;0.573
0.061;0.571
0.0612;0.57
0.0614;0.568
0.0616;0.566
0.0618;0.565
0.062;0.563
0.0622;0.561
0.0624;0.56
0.0626;0.558
0.0628;0.556
0.063;0.554
0.0632;0.553
0.0634;0.551
0.0636;0.549
0.0638;0.547
0.064;0.546
0.0642;0.544
0.0644;0.542
0.0646;0.54
0.0648;0.538
0.065;0.537
0.0652;0.535
0.0654;0.533
0.0656;0.531
0.0658;0.529
0.066;0.527
0.0662;0.525
0.0664;0.523
0.0666;0.521
0.0668;0.519
0.067;0.517
0.0672;0.515
0.0674;0.513
0.0676;0.511
0.0678;0.509
0.068;0.507
0.0682;0.505
0.0684;0.503
0.0686;0.501
0.0688;0.499
0.069;0.497
0.0692;0.494
0.0694;0.492
0.0696;0.49
0.0698;0.488
0.07;0.486
0.0702;0.483
0.0704;0.481
0.0706;0.479
0.0708;0.476
0.071;0.474
0.0712;0.472
0.0714;0.469
0.0716;0.467
0.0718;0.465
0.072;0.462
0.0722;0.46
0.0724;0.457
0.0726;0.455
0.0728;0.452
0.073;0.45
0.0732;0.447
0.0734;0.444
0.0736;0.442
0.0738;0.439
0.074;0.437
0.0742;0.434
0.0744;0.431
0.0746;0.428
0.0748;0.426
0.075;0.423
0.0752;0.42
0.0754;0.417
0.0756;0.414
0.0758;0.412
0.076;0.409
0.0762;0.406
0.0764;0.403
0.0766;0.4
0.0768;0.397
0.077;0.394
0.0772;0.391
0.0774;0.388
0.0776;0.385
0.0778;0.381
0.078;0.378
0.0782;0.375
0.0784;0.372
0.0786;0.369
0.0788;0.365
0.079;0.362
0.0792;0.359
0.0794;0.355
0.0796;0.352
0.0798;0.349
0.08;0.345
0.0802;0.342
0.0804;0.338
0.0806;0.335
0.0808;0.331
0.081;0.328
0.0812;0.324
0.0814;0.32
0.0816;0.317
0.0818;0.313
0.082;0.309
0.0822;0.305
0.0824;0.302
0.0826;0.298
0.0828;0.294
0.083;0.29
0.0832;0.286
0.0834;0.282
0.0836;0.278
0.0838;0.274
0.084;0.27
0.0842;0.266
0.0844;0.262
0.0846;0.258
0.0848;0.254
0.085;0.25
0.0852;0.246
0.0854;0.242
0.0856;0.237
0.0858;0.233
0.086;0.229
0.0862;0.225
0.0864;0.22
0.0866;0.216
0.0868;0.212
0.087;0.207
0.0872;0.203
0.0874;0.199
0.0876;0.194
0.0878;0.19
0.088;0.185
0.0882;0.181
0.0884;0.176
0.0886;0.172
0.0888;0.168
0.089;0.163
0.0892;0.159
0.0894;0.154
0.0896;0.15
0.0898;0.145
0.09;0.141
0.0902;0.136
0.0904;0.132
0.0906;0.127
0.0908;0.123
0.091;0.118
0.0912;0.114
0.0914;0.11
0.0916;0.105
0.0918;0.101
0.092;0.097
0.0922;0.092
0.0924;0.088
0.0926;0.084
0.0928;0.08
0.093;0.076
0.0932;0.072
0.0934;0.068
0.0936;0.064
0.0938;0.06
0.094;0.056
0.0942;0.053
0.0944;0.049
0.0946;0.045
0.0948;0.042
0.095;0.039
0.0952;0.035
0.0954;0.032
0.0956;0.029
0.0958;0.026
0.096;0.024
0.0962;0.021
0.0964;0.018
0.0966;0.016
0.0968;0.014
0.097;0.012
0.0972;0.01
0.0974;0.008
0.0976;0.006
0.0978;0.005
0.098;0.003
0.0982;0.002
0.0984;0.002
0.0986;0.001
0.0988;0.0
0.099;0.0
0.0992;0.0
0.0994;0.0
0.0996;0.001
0.0998;0.001
0.1;0.002
