energy;conductance
-0.1;0.55
-0.0998;0.551
-0.0996;0.553
-0.0994;0.554
-0.0992;0.556
-0.099;0.557
-0.0988;0.559
-0.0986;0.56
-0.0984;0.561
-0.0982;0.563
-0.098;0.564
-0.0978;0.566
-0.0976;0.567
-0.0974;0.569
-0.0972;0.57
-0.097;0.571
-0.0968;0.573
-0.0966;0.574
-0.0964;0.576
-0.0962;0.577
-0.096;0.579
-0.0958;0.58
-0.0956;0.581
-0.0954;0.583
-0.0952;0.584
-0.095;0.586
-0.0948;0.587
-0.0946;0.589
-0.0944;0.59
-0.0942;0.592
-0.094;0.593
-0.0938;0.594
-0.0936;0.596
-0.0934;0.597
-0.0932;0.599
-0.093;0.6
-0.0928;0.602
-0.0926;0.603
-0.0924;0.605
-0.0922;0.606
-0.092;0.607
-0.0918;0.609
-0.0916;0.61
-0.0914;0.612
-0.0912;0.613
-0.091;0.615
-0.0908;0.616
-0.0906;0.618
-0.0904;0.619
-0.0902;0.621
-0.09;0.622
-0.0898;0.624
-0.0896;0.625
-0.0894;0.627
-0.0892;0.628
-0.089;0.63
-0.0888;0.631
-0.0886;0.633
-0.0884;0.634
-0.0882;0.636
-0.088;0.637
-0.0878;0.639
-0.0876;0.64
-0.0874;0.642
-0.0872;0.643
-0.087;0.645
-0.0868;0.646
-0.0866;0.648
-0.0864;0.649
-0.0862;0.651
-0.086;0.653
-0.0858;0.654
-0.0856;0.656
-0.0854;0.657
-0.0852;0.659
-0.085;0.66
-0.0848;0.662
-0.0846;0.664
-0.0844;0.665
-0.0842;0.667
-0.084;0.668
-0.0838;0.67
-0.0836;0.672
-0.0834;0.673
-0.0832;0.675
-0.083;0.677
-0.0828;0.678
-0.0826;0.68
-0.0824;0.682
-0.0822;0.683
-0.082;0.685
-0.0818;0.687
-0.0816;0.688
-0.0814;0.69
-0.0812;0.692
-0.081;0.694
-0.0808;0.695
-0.0806;0.697
-0.0804;0.699
-0.0802;0.701
-0.08;0.702
-0.0798;0.704
-0.0796;0.706
-0.0794;0.708
-0.0792;0.71
-0.079;0.711
-0.0788;0.713
-0.0786;0.715
-0.0784;0.717
-0.0782;0.719
-0.078;0.721
-0.0778;0.723
-0.0776;0.724
-0.0774;0.726
-0.0772;0.728
-0.077;0.73
-0.0768;0.732
-0.0766;0.734
-0.0764;0.736
-0.0762;0.738
-0.076;0.74
-0.0758;0.742
-0.0756;0.744
-0.0754;0.746
-0.0752;0.748
-0.075;0.75
-0.0748;0.752
-0.0746;0.755
-0.0744;0.757
-0.0742;0.759
-0.074;0.761
-0.0738;0.763
-0.0736;0.765
-0.0734;0.768
-0.0732;0.77
-0.073;0.772
-0.0728;0.774
-0.0726;0.777
-0.0724;0.779
-0.0722;0.781
-0.072;0.783
-0.0718;0.786
-0.0716;0.788
-0.0714;0.791
-0.0712;0.793
-0.071;0.795
-0.0708;0.798
-0.0706;0.8
-0.0704;0.803
-0.0702;0.805
-0.07;0.808
-0.0698;0.81
-0.0696;0.813
-0.0694;0.816
-0.0692;0.818
-0.069;0.821
-0.0688;0.823
-0.0686;0.826
-0.0684;0.829
-0.0682;0.832
-0.068;0.834
-0.0678;0.837
-0.0676;0.84
-0.0674;0.843
-0.0672;0.845
-0.067;0.848
-0.0668;0.851
-0.0666;0.854
-0.0664;0.857
-0.0662;0.86
-0.066;0.863
-0.0658;0.866
-0.0656;0.869
-0.0654;0.872
-0.0652;0.875
-0.065;0.878
-0.0648;0.881
-0.0646;0.884
-0.0644;0.888
-0.0642;0.891
-0.064;0.894
-0.0638;0.897
-0.0636;0.9
-0.0634;0.903
-0.0632;0.907
-0.063;0.91
-0.0628;0.913
-0.0626;0.916
-0.0624;0.92
-0.0622;0.923
-0.062;0.926
-0.0618;0.929
-0.0616;0.933
-0.0614;0.936
-0.0612;0.939
-0.061;0.942
-0.0608;0.946
-0.0606;0.949
-0.0604;0.952
-0.0602;0.955
-0.06;0.958
-0.0598;0.961
-0.0596;0.964
-0.0594;0.967
-0.0592;0.97
-0.059;0.973
-0.0588;0.976
-0.0586;0.979
-0.0584;0.981
-0.0582;0.984
-0.058;0.986
-0.0578;0.988
-0.0576;0.99
-0.0574;0.992
-0.0572;0.994
-0.057;0.995
-0.0568;0.997
-0.0566;0.998
-0.0564;0.999
-0.0562;1.0
-0.056;1.0
-0.0558;1.0
-0.0556;1.0
-0.0554;0.999
-0.0552;0.998
-0.055;0.997
-0.0548;0.995
-0.0546;0.993
-0.0544;0.99
-0.0542;0.987
-0.054;0.983
-0.0538;0.979
-0.0536;0.974
-0.0534;0.968
-0.0532;0.962
-0.053;0.955
-0.0528;0.947
-0.0526;0.938
-0.0524;0.929
-0.0522;0.919
-0.052;0.908
-0.0518;0.896
-0.0516;0.883
-0.0514;0.869
-0.0512;0.855
-0.051;0.839
-0.0508;0.822
-0.0506;0.805
-0.0504;0.787
-0.0502;0.767
-0.05;0.747
-0.0498;0.726
-0.0496;0.705
-0.0494;0.682
-0.0492;0.659
-0.049;0.635
-0.0488;0.611
-0.0486;0.587
-0.0484;0.562
-0.0482;0.536
-0.048;0.511
-0.0478;0.486
-0.0476;0.46
-0.0474;0.435
-0.0472;0.41
-0.047;0.385
-0.0468;0.361
-0.0466;0.337
-0.0464;0.313
-0.0462;0.291
-0.046;0.269
-0.0458;0.248
-0.0456;0.228
-0.0454;0.208
-0.0452;0.19
-0.045;0.172
-0.0448;0.155
-0.0446;0.14
-0.0444;0.125
-0.0442;0.111
-0.044;0.098
-0.0438;0.086
-0.0436;0.075
-0.0434;0.065
-0.0432;0.056
-0.043;0.048
-0.0428;0.04
-0.0426;0.033
-0.0424;0.027
-0.0422;0.022
-0.042;0.017
-0.0418;0.013
-0.0416;0.01
-0.0414;0.007
-0.0412;0.005
-0.041;0.003
-0.0408;0.001
-0.0406;0.001
-0.0404;0.0
-0.0402;0.0
-0.04;0.0
-0.0398;0.001
-0.0396;0.002
-0.0394;0.003
-0.0392;0.004
-0.039;0.006
-0.0388;0.008
-0.0386;0.01
-0.0384;0.012
-0.0382;0.015
-0.038;0.017
-0.0378;0.02
-0.0376;0.023
-0.0374;0.026
-0.0372;0.029
-0.037;0.032
-0.0368;0.035
-0.0366;0.039
-0.0364;0.042
-0.0362;0.045
-0.036;0.049
-0.0358;0.052
-0.0356;0.056
-0.0354;0.059
-0.0352;0.063
-0.035;0.066
-0.0348;0.07
-0.0346;0.073
-0.0344;0.077
-0.0342;0.081
-0.034;0.084
-0.0338;0.088
-0.0336;0.091
-0.0334;0.095
-0.0332;0.098
-0.033;0.102
-0.0328;0.105
-0.0326;0.109
-0.0324;0.112
-0.0322;0.116
-0.032;0.119
-0.0318;0.123
-0.0316;0.126
-0.0314;0.129
-0.0312;0.133
-0.031;0.136
-0.0308;0.139
-0.0306;0.143
-0.0304;0.146
-0.0302;0.149
-0.03;0.152
-0.0298;0.155
-0.0296;0.158
-0.0294;0.161
-0.0292;0.165
-0.029;0.168
-0.0288;0.171
-0.0286;0.174
-0.0284;0.177
-0.0282;0.179
-0.028;0.182
-0.0278;0.185
-0.0276;0.188
-0.0274;0.191
-0.0272;0.194
-0.027;0.197
-0.0268;0.199
-0.0266;0.202
-0.0264;0.205
-0.0262;0.208
-0.026;0.21
-0.0258;0.213
-0.0256;0.216
-0.0254;0.218
-0.0252;0.221
-0.025;0.224
-0.0248;0.226
-0.0246;0.229
-0.0244;0.231
-0.0242;0.234
-0.024;0.236
-0.0238;0.239
-0.0236;0.242
-0.0234;0.244
-0.0232;0.247
-0.023;0.249
-0.0228;0.252
-0.0226;0.254
-0.0224;0.257
-0.0222;0.259
-0.022;0.262
-0.0218;0.264
-0.0216;0.267
-0.0214;0.269
-0.0212;0.272
-0.021;0.275
-0.0208;0.277
-0.0206;0.28
-0.0204;0.282
-0.0202;0.285
-0.02;0.288
-0.0198;0.29
-0.0196;0.293
-0.0194;0.296
-0.0192;0.299
-0.019;0.302
-0.0188;0.305
-0.0186;0.307
-0.0184;0.31
-0.0182;0.314
-0.018;0.317
-0.0178;0.32
-0.0176;0.323
-0.0174;0.326
-0.0172;0.33
-0.017;0.333
-0.0168;0.337
-0.0166;0.341
-0.0164;0.345
-0.0162;0.349
-0.016;0.353
-0.0158;0.358
-0.0156;0.362
-0.0154;0.367
-0.0152;0.372
-0.015;0.377
-0.0148;0.383
-0.0146;0.389
-0.0144;0.395
-0.0142;0.401
-0.014;0.408
-0.0138;0.416
-0.0136;0.424
-0.0134;0.433
-0.0132;0.442
-0.013;0.452
-0.0128;0.463
-0.0126;0.475
-0.0124;0.488
-0.0122;0.502
-0.012;0.518
-0.0118;0.536
-0.0116;0.555
-0.0114;0.577
-0.0112;0.602
-0.011;0.63
-0.0108;0.662
-0.0106;0.698
-0.0104;0.739
-0.0102;0.785
-0.01;0.835
-0.0098;0.889
-0.0096;0.941
-0.0094;0.983
-0.0092;1.0
-0.009;0.969
-0.0088;0.874
-0.0086;0.716
-0.0084;0.529
-0.0082;0.353
-0.008;0.215
-0.0078;0.12
-0.0076;0.06
-0.0074;0.026
-0.0072;0.008
-0.007;0.001
-0.0068;0.0
-0.0066;0.004
-0.0064;0.009
-0.0062;0.016
-0.006;0.023
-0.0058;0.031
-0.0056;0.038
-0.0054;0.045
-0.0052;0.052
-0.005;0.059
-0.0048;0.066
-0.0046;0.072
-0.0044;0.077
-0.0042;0.083
-0.004;0.088
-0.0038;0.093
-0.0036;0.098
-0.0034;0.103
-0.0032;0.108
-0.003;0.113
-0.0028;0.119
-0.0026;0.125
-0.0024;0.132
-0.0022;0.141
-0.002;0.153
-0.0018;0.172
-0.0016;0.206
-0.0014;0.291
-0.0012;0.673
-0.001;0.143
-0.0008;0.002
-0.0006;0.022
-0.0004;0.036
-0.0002;0.052
0.0;0.0
0.0002;0.052
0.0004;0.036
0.0006;0.022
0.0008;0.002
0.001;0.143
0.0012;0.673
0.0014;0.291
0.0016;0.206
0.0018;0.172
0.002;0.153
0.0022;0.141
0.0024;0.132
0.0026;0.125
0.0028;0.119
0.003;0.113
0.0032;0.108
0.0034;0.103
0.0036;0.098
0.0038;0.093
0.004;0.088
0.0042;0.083
0.0044;0.077
0.0046;0.072
0.0048;0.066
0.005;0.059
0.0052;0.052
0.0054;0.045
0.0056;0.038
0.0058;0.031
0.006;0.023
0.0062;0.016
0.0064;0.009
0.0066;0.004
0.0068;0.0
0.007;0.001
0.0072;0.008
0.0074;0.026
0.0076;0.06
0.0078;0.12
0.008;0.215
0.0082;0.353
0.0084;0.529
0.0086;0.716
0.0088;0.874
0.009;0.969
0.0092;1.0
0.0094;0.983
0.0096;0.941
0.0098;0.889
0.01;0.835
0.0102;0.785
0.0104;0.739
0.0106;0.698
0.0108;0.662
0.011;0.63
0.0112;0.602
0.0114;0.577
0.0116;0.555
0.0118;0.536
0.012;0.518
0.0122;0.502
0.0124;0.488
0.0126;0.475
0.0128;0.463
0.013;0.452
0.0132;0.442
0.0134;0.433
0.0136;0.424
0.0138;0.416
0.014;0.408
0.0142;0.401
0.0144;0.395
0.0146;0.389
0.0148;0.383
0.015;0.377
0.0152;0.372
0.0154;0.367
0.0156;0.362
0.0158;0.358
0.016;0.353
0.0162;0.349
0.0164;0.345
0.0166;0.341
0.0168;0.337
0.017;0.333
0.0172;0.33
0.0174;0.326
0.0176;0.323
0.0178;0.32
0.018;0.317
0.0182;0.314
0.0184;0.31
0.0186;0.307
0.0188;0.305
0.019;0.302
0.0192;0.299
0.0194;0.296
0.0196;0.293
0.0198;0.29
0.02;0.288
0.0202;0.285
0.0204;0.282
0.0206;0.28
0.0208;0.277
0.021;0.275
0.0212;0.272
0.0214;0.269
0.0216;0.267
0.0218;0.264
0.022;0.262
0.0222;0.259
0.0224;0.257
0.0226;0.254
0.0228;0.252
0.023;0.249
0.0232;0.247
0.0234;0.244
0.0236;0.242
0.0238;0.239
0.024;0.236
0.0242;0.234
0.0244;0.231
0.0246;0.229
0.0248;0.226
0.025;0.224
0.0252;0.221
0.0254;0.218
0.0256;0.216
0.0258;0.213
0.026;0.21
0.0262;0.208
0.0264;0.205
0.0266;0.202
0.0268;0.199
0.027;0.197
0.0272;0.194
0.0274;0.191
0.0276;0.188
0.0278;0.185
0.028;0.182
0.0282;0.179
0.0284;0.177
0.0286;0.174
0.0288;0.171
0.029;0.168
0.0292;0.165
0.0294;0.161
0.0296;0.158
0.0298;0.155
0.03;0.152
0.0302;0.149
0.0304;0.146
0.0306;0.143
0.0308;0.139
0.031;0.136
0.0312;0.133
0.0314;0.129
0.0316;0.126
0.0318;0.123
0.032;0.119
0.0322;0.116
0.0324;0.112
0.0326;0.109
0.0328;0.105
0.033;0.102
0.0332;0.098
0.0334;0.095
0.0336;0.091
0.0338;0.088
0.034;0.084
0.0342;0.081
0.0344;0.077
0.0346;0.073
0.0348;0.07
0.035;0.066
0.0352;0.063
0.0354;0.059
0.0356;0.056
0.0358;0.052
0.036;0.049
0.0362;0.045
0.0364;0.042
0.0366;0.039
0.0368;0.035
0.037;0.032
0.0372;0.029
0.0374;0.026
0.0376;0.023
0.0378;0.02
0.038;0.017
0.0382;0.015
0.0384;0.012
0.0386;0.01
0.0388;0.008
0.039;0.006
0.0392;0.004
0.0394;0.003
0.0396;0.002
0.0398;0.001
0.04;0.0
0.0402;0.0
0.0404;0.0
0.0406;0.001
0.0408;0.001
0.041;0.003
0.0412;0.005
0.0414;0.007
0.0416;0.01
0.0418;0.013
0.042;0.017
0.0422;0.022
0.0424;0.027
0.0426;0.033
0.0428;0.04
0.043;0.048
0.0432;0.056
0.0434;0.065
0.0436;0.075
0.0438;0.086
0.044;0.098
0.0442;0.111
0.0444;0.125
0.0446;0.14
0.0448;0.155
0.045;0.172
0.0452;0.19
0.0454;0.208
0.0456;0.228
0.0458;0.248
0.046;0.269
0.0462;0.291
0.0464;0.313
0.0466;0.337
0.0468;0.361
0.047;0.385
0.0472;0.41
0.0474;0.435
0.0476;0.46
0.0478;0.486
0.048;0.511
0.0482;0.536
0.0484;0.562
0.0486;0.587
0.0488;0.611
0.049;0.635
0.0492;0.659
0.0494;0.682
0.0496;0.705
0.0498;0.726
0.05;0.747
0.0502;0.767
0.0504;0.787
0.0506;0.805
0.0508;0.822
0.051;0.839
0.0512;0.855
0.0514;0.869
0.0516;0.883
0.0518;0.896
0.052;0.908
0.0522;0.919
0.0524;0.929
0.0526;0.938
0.0528;0.947
0.053;0.955
0.0532;0.962
0.0534;0.968
0.0536;0.974
0.0538;0.979
0.054;0.983
0.0542;0.987
0.0544;0.99
0.0546;0.993
0.0548;0.995
0.055;0.997
0.0552;0.998
0.0554;0.999
0.0556;1.0
0.0558;1.0
0.056;1.0
0.0562;1.0
0.0564;0.999
0.0566;0.998
0.0568;0.997
0.057;0.995
0.0572;0.994
0.0574;0.992
0.0576;0.99
0.0578;0.988
0.058;0.986
0.0582;0.984
0.0584;0.981
0.0586;0.979
0.0588;0.976
0.059;0.973
0.0592;0.97
0.0594;0.967
0.0596;0.964
0.0598;0.961
0.06;0.958
0.0602;0.955
0.0604;0.952
0.0606;0.949
0.0608;0.946
0.061;0.942
0.0612;0.939
0.0614;0.936
0.0616;0.933
0.0618;0.929
0.062;0.926
0.0622;0.923
0.0624;0.92
0.0626;0.916
0.0628;0.913
0.063;0.91
0.0632;0.907
0.0634;0.903
0.0636;0.9
0.0638;0.897
0.064;0.894
0.0642;0.891
0.0644;0.888
0.0646;0.884
0.0648;0.881
0.065;0.878
0.0652;0.875
0.0654;0.872
0.0656;0.869
0.0658;0.866
0.066;0.863
0.0662;0.86
0.0664;0.857
0.0666;0.854
0.0668;0.851
0.067;0.848
0.0672;0.845
0.0674;0.843
0.0676;0.84
0.0678;0.837
0.068;0.834
0.0682;0.832
0.0684;0.829
0.0686;0.826
0.0688;0.823
0.069;0.821
0.0692;0.818
0.0694;0.816
0.0696;0.813
0.0698;0.81
0.07;0.808
0.0702;0.805
0.0704;0.803
0.0706;0.8
0.0708;0.798
0.071;0.795
0.0712;0.793
0.0714;0.791
0.0716;0.788
0.0718;0.786
0.072;0.783
0.0722;0.781
0.0724;0.779
0.0726;0.777
0.0728;0.774
0.073;0.772
0.0732;0.77
0.0734;0.768
0.0736;0.765
0.0738;0.763
0.074;0.761
0.0742;0.759
0.0744;0.757
0.0746;0.755
0.0748;0.752
0.075;0.75
0.0752;0.748
0.0754;0.746
0.0756;0.744
0.0758;0.742
0.076;0.74
0.0762;0.738
0.0764;0.736
0.0766;0.734
0.0768;0.732
0.077;0.73
0.0772;0.728
0.0774;0.726
0.0776;0.724
0.0778;0.723
0.078;0.721
0.0782;0.719
0.0784;0.717
0.0786;0.715
0.0788;0.713
0.079;0.711
0.0792;0.71
0.0794;0.708
0.0796;0.706
0.0798;0.704
0.08;0.702
0.0802;0.701
0.0804;0.699
0.0806;0.697
0.0808;0.695
0.081;0.694
0.0812;0.692
0.0814;0.69
0.0816;0.688
0.0818;0.687
0.082;0.685
0.0822;0.683
0.0824;0.682
0.0826;0.68
0.0828;0.678
0.083;0.677
0.0832;0.675
0.0834;0.673
0.0836;0.672
0.0838;0.67
0.084;0.668
0.0842;0.667
0.0844;0.665
0.0846;0.664
0.0848;0.662
0.085;0.66
0.0852;0.659
0.0854;0.657
0.0856;0.656
0.0858;0.654
0.086;0.653
0.0862;0.651
0.0864;0.649
0.0866;0.648
0.0868;0.646
0.087;0.645
0.0872;0.643
0.0874;0.642
0.0876;0.64
0.0878;0.639
0.088;0.637
0.0882;0.636
0.0884;0.634
0.0886;0.633
0.0888;0.631
0.089;0.63
0.0892;0.628
0.0894;0.627
0.0896;0.625
0.0898;0.624
0.09;0.622
0.0902;0.621
0.0904;0.619
0.0906;0.618
0.0908;0.616
0.091;0.615
0.0912;0.613
0.0914;0.612
0.0916;0.61
0.0918;0.609
0.092;0.607
0.0922;0.606
0.0924;0.605
0.0926;0.603
0.0928;0.602
0.093;0.6
0.0932;0.599
0.0934;0.597
0.0936;0.596
0.0938;0.594
0.094;0.593
0.0942;0.592
0.0944;0.59
0.0946;0.589
0.0948;0.587
0.095;0.586
0.0952;0.584
0.0954;0.583
0.0956;0.581
0.0958;0.58
0.096;0.579
0.0962;0.577
0.0964;0.576
0.0966;0.574
0.0968;0.573
0.097;0.571
0.0972;0.57
0.0974;0.569
0.0976;0.567
0.0978;0.566
0.098;0.564
0.0982;0.563
0.0984;0.561
0.0986;0.56
0.0988;0.559
0.099;0.557
0.0992;0.556
0.0994;0.554
0.0996;0.553
0.0998;0.551
0.1;0.55
