energy;conductance
-0.1;0.991
-0.0998;0.993
-0.0996;0.995
-0.0994;0.996
-0.0992;0.998
-0.099;0.999
-0.0988;0.999
-0.0986;1.0
-0.0984;1.0
-0.0982;1.0
-0.098;1.0
-0.0978;0.999
-0.0976;0.998
-0.0974;0.996
-0.0972;0.995
-0.097;0.993
-0.0968;0.99
-0.0966;0.988
-0.0964;0.985
-0.0962;0.981
-0.096;0.977
-0.0958;0.973
-0.0956;0.968
-0.0954;0.963
-0.0952;0.958
-0.095;0.952
-0.0948;0.946
-0.0946;0.939
-0.0944;0.932
-0.0942;0.925
-0.094;0.917
-0.0938;0.908
-0.0936;0.9
-0.0934;0.89
-0.0932;0.881
-0.093;0.871
-0.0928;0.861
-0.0926;0.85
-0.0924;0.839
-0.0922;0.828
-0.092;0.816
-0.0918;0.804
-0.0916;0.792
-0.0914;0.779
-0.0912;0.767
-0.091;0.754
-0.0908;0.74
-0.0906;0.727
-0.0904;0.713
-0.0902;0.699
-0.09;0.686
-0.0898;0.671
-0.0896;0.657
-0.0894;0.643
-0.0892;0.629
-0.089;0.614
-0.0888;0.6
-0.0886;0.585
-0.0884;0.571
-0.0882;0.557
-0.088;0.542
-0.0878;0.528
-0.0876;0.514
-0.0874;0.5
-0.0872;0.486
-0.087;0.472
-0.0868;0.458
-0.0866;0.445
-0.0864;0.431
-0.0862;0.418
-0.086;0.405
-0.0858;0.392
-0.0856;0.38
-0.0854;0.367
-0.0852;0.355
-0.085;0.343
-0.0848;0.332
-0.0846;0.32
-0.0844;0.309
-0.0842;0.298
-0.084;0.287
-0.0838;0.277
-0.0836;0.267
-0.0834;0.257
-0.0832;0.247
-0.083;0.238
-0.0828;0.228
-0.0826;0.22
-0.0824;0.211
-0.0822;0.202
-0.082;0.194
-0.0818;0.186
-0.0816;0.179
-0.0814;0.171
-0.0812;0.164
-0.081;0.157
-0.0808;0.15
-0.0806;0.143
-0.0804;0.137
-0.0802;0.131
-0.08;0.125
-0.0798;0.119
-0.0796;0.114
-0.0794;0.108
-0.0792;0.103
-0.079;0.098
-0.0788;0.094
-0.0786;0.089
-0.0784;0.084
-0.0782;0.08
-0.078;0.076
-0.0778;0.072
-0.0776;0.068
-0.0774;0.065
-0.0772;0.061
-0.077;0.058
-0.0768;0.055
-0.0766;0.052
-0.0764;0.049
-0.0762;0.046
-0.076;0.043
-0.0758;0.04
-0.0756;0.038
-0.0754;0.036
-0.0752;0.033
-0.075;0.031
-0.0748;0.029
-0.0746;0.027
-0.0744;0.025
-0.0742;0.023
-0.074;0.022
-0.0738;0.02
-0.0736;0.019
-0.0734;0.017
-0.0732;0.016
-0.073;0.014
-0.0728;0.013
-0.0726;0.012
-0.0724;0.011
-0.0722;0.01
-0.072;0.009
-0.0718;0.008
-0.0716;0.007
-0.0714;0.007
-0.0712;0.006
-0.071;0.005
-0.0708;0.004
-0.0706;0.004
-0.0704;0.003
-0.0702;0.003
-0.07;0.002
-0.0698;0.002
-0.0696;0.002
-0.0694;0.001
-0.0692;0.001
-0.069;0.001
-0.0688;0.001
-0.0686;0.0
-0.0684;0.0
-0.0682;0.0
-0.068;0.0
-0.0678;0.0
-0.0676;0.0
-0.0674;0.0
-0.0672;0.0
-0.067;0.0
-0.0668;0.0
-0.0666;0.0
-0.0664;0.0
-0.0662;0.001
-0.066;0.001
-0.0658;0.001
-0.0656;0.001
-0.0654;0.001
-0.0652;0.002
-0.065;0.002
-0.0648;0.002
-0.0646;0.002
-0.0644;0.003
-0.0642;0.003
-0.064;0.003
-0.0638;0.004
-0.0636;0.004
-0.0634;0.004
-0.0632;0.005
-0.063;0.005
-0.0628;0.006
-0.0626;0.006
-0.0624;0.006
-0.0622;0.007
-0.062;0.007
-0.0618;0.008
-0.0616;0.008
-0.0614;0.009
-0.0612;0.009
-0.061;0.01
-0.0608;0.01
-0.0606;0.011
-0.0604;0.011
-0.0602;0.012
-0.06;0.012
-0.0598;0.013
-0.0596;0.013
-0.0594;0.014
-0.0592;0.015
-0.059;0.015
-0.0588;0.016
-0.0586;0.016
-0.0584;0.017
-0.0582;0.017
-0.058;0.018
-0.0578;0.018
-0.0576;0.019
-0.0574;0.02
-0.0572;0.02
-0.057;0.021
-0.0568;0.021
-0.0566;0.022
-0.0564;0.023
-0.0562;0.023
-0.056;0.024
-0.0558;0.024
-0.0556;0.025
-0.0554;0.026
-0.0552;0.026
-0.055;0.027
-0.0548;0.028
-0.0546;0.028
-0.0544;0.029
-0.0542;0.029
-0.054;0.03
-0.0538;0.031
-0.0536;0.031
-0.0534;0.032
-0.0532;0.033
-0.053;0.033
-0.0528;0.034
-0.0526;0.034
-0.0524;0.035
-0.0522;0.036
-0.052;0.036
-0.0518;0.037
-0.0516;0.038
-0.0514;0.038
-0.0512;0.039
-0.051;0.04
-0.0508;0.04
-0.0506;0.041
-0.0504;0.042
-0.0502;0.042
-0.05;0.043
-0.0498;0.043
-0.0496;0.044
-0.0494;0.045
-0.0492;0.045
-0.049;0.046
-0.0488;0.047
-0.0486;0.047
-0.0484;0.048
-0.0482;0.049
-0.048;0.049
-0.0478;0.05
-0.0476;0.051
-0.0474;0.051
-0.0472;0.052
-0.047;0.053
-0.0468;0.053
-0.0466;0.054
-0.0464;0.055
-0.0462;0.055
-0.046;0.056
-0.0458;0.057
-0.0456;0.057
-0.0454;0.058
-0.0452;0.059
-0.045;0.059
-0.0448;0.06
-0.0446;0.061
-0.0444;0.061
-0.0442;0.062
-0.044;0.063
-0.0438;0.063
-0.0436;0.064
-0.0434;0.065
-0.0432;0.066
-0.043;0.066
-0.0428;0.067
-0.0426;0.068
-0.0424;0.068
-0.0422;0.069
-0.042;0.07
-0.0418;0.071
-0.0416;0.071
-0.0414;0.072
-0.0412;0.073
-0.041;0.073
-0.0408;0.074
-0.0406;0.075
-0.0404;0.076
-0.0402;0.076
-0.04;0.077
-0.0398;0.078
-0.0396;0.079
-0.0394;0.08
-0.0392;0.08
-0.039;0.081
-0.0388;0.082
-0.0386;0.083
-0.0384;0.084
-0.0382;0.084
-0.038;0.085
-0.0378;0.086
-0.0376;0.087
-0.0374;0.088
-0.0372;0.089
-0.037;0.089
-0.0368;0.09
-0.0366;0.091
-0.0364;0.092
-0.0362;0.093
-0.036;0.094
-0.0358;0.095
-0.0356;0.096
-0.0354;0.097
-0.0352;0.098
-0.035;0.099
-0.0348;0.1
-0.0346;0.101
-0.0344;0.102
-0.0342;0.103
-0.034;0.104
-0.0338;0.105
-0.0336;0.107
-0.0334;0.108
-0.0332;0.109
-0.033;0.11
-0.0328;0.111
-0.0326;0.113
-0.0324;0.114
-0.0322;0.115
-0.032;0.117
-0.0318;0.118
-0.0316;0.119
-0.0314;0.121
-0.0312;0.122
-0.031;0.124
-0.0308;0.126
-0.0306;0.127
-0.0304;0.129
-0.0302;0.131
-0.03;0.132
-0.0298;0.134
-0.0296;0.136
-0.0294;0.138
-0.0292;0.14
-0.029;0.142
-0.0288;0.145
-0.0286;0.147
-0.0284;0.149
-0.0282;0.152
-0.028;0.154
-0.0278;0.157
-0.0276;0.16
-0.0274;0.163
-0.0272;0.166
-0.027;0.169
-0.0268;0.173
-0.0266;0.176
-0.0264;0.18
-0.0262;0.184
-0.026;0.188
-0.0258;0.193
-0.0256;0.197
-0.0254;0.202
-0.0252;0.207
-0.025;0.213
-0.0248;0.219
-0.0246;0.225
-0.0244;0.232
-0.0242;0.24
-0.024;0.247
-0.0238;0.256
-0.0236;0.265
-0.0234;0.275
-0.0232;0.286
-0.023;0.298
-0.0228;0.311
-0.0226;0.325
-0.0224;0.34
-0.0222;0.357
-0.022;0.376
-0.0218;0.397
-0.0216;0.42
-0.0214;0.446
-0.0212;0.475
-0.021;0.507
-0.0208;0.543
-0.0206;0.583
-0.0204;0.627
-0.0202;0.677
-0.02;0.73
-0.0198;0.787
-0.0196;0.845
-0.0194;0.901
-0.0192;0.951
-0.019;0.986
-0.0188;1.0
-0.0186;0.986
-0.0184;0.94
-0.0182;0.867
-0.018;0.773
-0.0178;0.669
-0.0176;0.566
-0.0174;0.469
-0.0172;0.384
-0.017;0.312
-0.0168;0.251
-0.0166;0.202
-0.0164;0.162
-0.0162;0.129
-0.016;0.103
-0.0158;0.082
-0.0156;0.065
-0.0154;0.052
-0.0152;0.041
-0.015;0.032
-0.0148;0.025
-0.0146;0.019
-0.0144;0.015
-0.0142;0.011
-0.014;0.008
-0.0138;0.006
-0.0136;0.004
-0.0134;0.003
-0.0132;0.002
-0.013;0.001
-0.0128;0.0
-0.0126;0.0
-0.0124;0.0
-0.0122;0.0
-0.012;0.0
-0.0118;0.0
-0.0116;0.001
-0.0114;0.001
-0.0112;0.002
-0.011;0.002
-0.0108;0.002
-0.0106;0.003
-0.0104;0.004
-0.0102;0.004
-0.01;0.005
-0.0098;0.005
-0.0096;0.006
-0.0094;0.007
-0.0092;0.007
-0.009;0.008
-0.0088;0.008
-0.0086;0.009
-0.0084;0.01
-0.0082;0.01
-0.008;0.011
-0.0078;0.012
-0.0076;0.012
-0.0074;0.013
-0.0072;0.013
-0.007;0.014
-0.0068;0.015
-0.0066;0.016
-0.0064;0.016
-0.0062;0.017
-0.006;0.018
-0.0058;0.019
-0.0056;0.02
-0.0054;0.021
-0.0052;0.022
-0.005;0.023
-0.0048;0.024
-0.0046;0.026
-0.0044;0.028
-0.0042;0.031
-0.004;0.034
-0.0038;0.039
-0.0036;0.046
-0.0034;0.058
-0.0032;0.079
-0.003;0.129
-0.0028;0.311
-0.0026;0.989
-0.0024;0.13
-0.0022;0.02
-0.002;0.004
-0.0018;0.0
-0.0016;0.0
-0.0014;0.001
-0.0012;0.001
-0.001;0.002
-0.0008;0.003
-0.0006;0.004
-0.0004;0.007
-0.0002;0.0
0.0;0.0
0.0002;0.0
0.0004;0.007
0.0006;0.004
0.0008;0.003
0.001;0.002
0.0012;0.001
0.0014;0.001
0.0016;0.0
0.0018;0.0
0.002;0.004
0.0022;0.02
0.0024;0.13
0.0026;0.989
0.0028;0.311
0.003;0.129
0.0032;0.079
0.0034;0.058
0.0036;0.046
0.0038;0.039
0.004;0.034
0.0042;0.031
0.0044;0.028
0.0046;0.026
0.0048;0.024
0.005;0.023
0.0052;0.022
0.0054;0.021
0.0056;0.02
0.0058;0.019
0.006;0.018
0.0062;0.017
0.0064;0.016
0.0066;0.016
0.0068;0.015
0.007;0.014
0.0072;0.013
0.0074;0.013
0.0076;0.012
0.0078;0.012
0.008;0.011
0.0082;0.01
0.0084;0.01
0.0086;0.009
0.0088;0.008
0.009;0.008
0.0092;0.007
0.0094;0.007
0.0096;0.006
0.0098;0.005
0.01;0.005
0.0102;0.004
0.0104;0.004
0.0106;0.003
0.0108;0.002
0.011;0.002
0.0112;0.002
0.0114;0.001
0.0116;0.001
0.0118;0.0
0.012;0.0
0.0122;0.0
0.0124;0.0
0.0126;0.0
0.0128;0.0
0.013;0.001
0.0132;0.002
0.0134;0.003
0.0136;0.004
0.0138;0.006
0.014;0.008
0.0142;0.011
0.0144;0.015
0.0146;0.019
0.0148;0.025
0.015;0.032
0.0152;0.041
0.0154;0.052
0.0156;0.065
0.0158;0.082
0.016;0.103
0.0162;0.129
0.0164;0.162
0.0166;0.202
0.0168;0.251
0.017;0.312
0.0172;0.384
0.0174;0.469
0.0176;0.566
0.0178;0.669
0.018;0.773
0.0182;0.867
0.0184;0.94
0.0186;0.986
0.0188;1.0
0.019;0.986
0.0192;0.951
0.0194;0.901
0.0196;0.845
0.0198;0.787
0.02;0.73
0.0202;0.677
0.0204;0.627
0.0206;0.583
0.0208;0.543
0.021;0.507
0.0212;0.475
0.0214;0.446
0.0216;0.42
0.0218;0.397
0.022;0.376
0.0222;0.357
0.0224;0.34
0.0226;0.325
0.0228;0.311
0.023;0.298
0.0232;0.286
0.0234;0.275
0.0236;0.265
0.0238;0.256
0.024;0.247
0.0242;0.24
0.0244;0.232
0.0246;0.225
0.0248;0.219
0.025;0.213
0.0252;0.207
0.0254;0.202
0.0256;0.197
0.0258;0.193
0.026;0.188
0.0262;0.184
0.0264;0.18
0.0266;0.176
0.0268;0.173
0.027;0.169
0.0272;0.166
0.0274;0.163
0.0276;0.16
0.0278;0.157
0.028;0.154
0.0282;0.152
0.0284;0.149
0.0286;0.147
0.0288;0.145
0.029;0.142
0.0292;0.14
0.0294;0.138
0.0296;0.136
0.0298;0.134
0.03;0.132
0.0302;0.131
0.0304;0.129
0.0306;0.127
0.0308;0.126
0.031;0.124
0.0312;0.122
0.0314;0.121
0.0316;0.119
0.0318;0.118
0.032;0.117
0.0322;0.115
0.0324;0.114
0.0326;0.113
0.0328;0.111
0.033;0.11
0.0332;0.109
0.0334;0.108
0.0336;0.107
0.0338;0.105
0.034;0.104
0.0342;0.103
0.0344;0.102
0.0346;0.101
0.0348;0.1
0.035;0.099
0.0352;0.098
0.0354;0.097
0.0356;0.096
0.0358;0.095
0.036;0.094
0.0362;0.093
0.0364;0.092
0.0366;0.091
0.0368;0.09
0.037;0.089
0.0372;0.089
0.0374;0.088
0.0376;0.087
0.0378;0.086
0.038;0.085
0.0382;0.084
0.0384;0.084
0.0386;0.083
0.0388;0.082
0.039;0.081
0.0392;0.08
0.0394;0.08
0.0396;0.079
0.0398;0.078
0.04;0.077
0.0402;0.076
0.0404;0.076
0.0406;0.075
0.0408;0.074
0.041;0.073
0.0412;0.073
0.0414;0.072
0.0416;0.071
0.0418;0.071
0.042;0.07
0.0422;0.069
0.0424;0.068
0.0426;0.068
0.0428;0.067
0.043;0.066
0.0432;0.066
0.0434;0.065
0.0436;0.064
0.0438;0.063
0.044;0.063
0.0442;0.062
0.0444;0.061
0.0446;0.061
0.0448;0.06
0.045;0.059
0.0452;0.059
0.0454;0.058
0.0456;0.057
0.0458;0.057
0.046;0.056
0.0462;0.055
0.0464;0.055
0.0466;0.054
0.0468;0.053
0.047;0.053
0.0472;0.052
0.0474;0.051
0.0476;0.051
0.0478;0.05
0.048;0.049
0.0482;0.049
0.0484;0.048
0.0486;0.047
0.0488;0.047
0.049;0.046
0.0492;0.045
0.0494;0.045
0.0496;0.044
0.0498;0.043
0.05;0.043
0.0502;0.042
0.0504;0.042
0.0506;0.041
0.0508;0.04
0.051;0.04
0.0512;0.039
0.0514;0.038
0.0516;0.038
0.0518;0.037
0.052;0.036
0.0522;0.036
0.0524;0.035
0.0526;0.034
0.0528;0.034
0.053;0.033
0.0532;0.033
0.0534;0.032
0.0536;0.031
0.0538;0.031
0.054;0.03
0.0542;0.029
0.0544;0.029
0.0546;0.028
0.0548;0.028
0.055;0.027
0.0552;0.026
0.0554;0.026
0.0556;0.025
0.0558;0.024
0.056;0.024
0.0562;0.023
0.0564;0.023
0.0566;0.022
0.0568;0.021
0.057;0.021
0.0572;0.02
0.0574;0.02
0.0576;0.019
0.0578;0.018
0.058;0.018
0.0582;0.017
0.0584;0.017
0.0586;0.016
0.0588;0.016
0.059;0.015
0.0592;0.015
0.0594;0.014
0.0596;0.013
0.0598;0.013
0.06;0.012
0.0602;0.012
0.0604;0.011
0.0606;0.011
0.0608;0.01
0.061;0.01
0.0612;0.009
0.0614;0.009
0.0616;0.008
0.0618;0.008
0.062;0.007
0.0622;0.007
0.0624;0.006
0.0626;0.006
0.0628;0.006
0.063;0.005
0.0632;0.005
0.0634;0.004
0.0636;0.004
0.0638;0.004
0.064;0.003
0.0642;0.003
0.0644;0.003
0.0646;0.002
0.0648;0.002
0.065;0.002
0.0652;0.002
0.0654;0.001
0.0656;0.001
0.0658;0.001
0.066;0.001
0.0662;0.001
0.0664;0.0
0.0666;0.0
0.0668;0.0
0.067;0.0
0.0672;0.0
0.0674;0.0
0.0676;0.0
0.0678;0.0
0.068;0.0
0.0682;0.0
0.0684;0.0
0.0686;0.0
0.0688;0.001
0.069;0.001
0.0692;0.001
0.0694;0.001
0.0696;0.002
0.0698;0.002
0.07;0.002
0.0702;0.003
0.0704;0.003
0.0706;0.004
0.0708;0.004
0.071;0.005
0.0712;0.006
0.0714;0.007
0.0716;0.007
0.0718;0.008
0.072;0.009
0.0722;0.01
0.0724;0.011
0.0726;0.012
0.0728;0.013
0.073;0.014
0.0732;0.016
0.0734;0.017
0.0736;0.019
0.0738;0.02
0.074;0.022
0.0742;0.023
0.0744;0.025
0.0746;0.027
0.0748;0.029
0.075;0.031
0.0752;0.033
0.0754;0.036
0.0756;0.038
0.0758;0.04
0.076;0.043
0.0762;0.046
0.0764;0.049
0.0766;0.052
0.0768;0.055
0.077;0.058
0.0772;0.061
0.0774;0.065
0.0776;0.068
0.0778;0.072
0.078;0.076
0.0782;0.08
0.0784;0.084
0.0786;0.089
0.0788;0.094
0.079;0.098
0.0792;0.103
0.0794;0.108
0.0796;0.114
0.0798;0.119
0.08;0.125
0.0802;0.131
0.0804;0.137
0.0806;0.143
0.0808;0.15
0.081;0.157
0.0812;0.164
0.0814;0.171
0.0816;0.179
0.0818;0.186
0.082;0.194
0.0822;0.202
0.0824;0.211
0.0826;0.22
0.0828;0.228
0.083;0.238
0.0832;0.247
0.0834;0.257
0.0836;0.267
0.0838;0.277
0.084;0.287
0.0842;0.298
0.0844;0.309
0.0846;0.32
0.0848;0.332
0.085;0.343
0.0852;0.355
0.0854;0.367
0.0856;0.38
0.0858;0.392
0.086;0.405
0.0862;0.418
0.0864;0.431
0.0866;0.445
0.0868;0.458
0.087;0.472
0.0872;0.486
0.0874;0.5
0.0876;0.514
0.0878;0.528
0.088;0.542
0.0882;0.557
0.0884;0.571
0.0886;0.585
0.0888;0.6
0.089;0.614
0.0892;0.629
0.0894;0.643
0.0896;0.657
0.0898;0.671
0.09;0.686
0.0902;0.699
0.0904;0.713
0.0906;0.727
0.0908;0.74
0.091;0.754
0.0912;0.767
0.0914;0.779
0.0916;0.792
0.0918;0.804
0.092;0.816
0.0922;0.828
0.0924;0.839
0.0926;0.85
0.0928;0.861
0.093;0.871
0.0932;0.881
0.0934;0.89
0.0936;0.9
0.0938;0.908
0.094;0.917
0.0942;0.925
0.0944;0.932
0.0946;0.939
0.0948;0.946
0.095;0.952
0.0952;0.958
0.0954;0.963
0.0956;0.968
0.0958;0.973
0.096;0.977
0.0962;0.981
0.0964;0.985
0.0966;0.988
0.0968;0.99
0.097;0.993
0.0972;0.995
0.0974;0.996
0.0976;0.998
0.0978;0.999
0.098;1.0
0.0982;1.0
0.0984;1.0
0.0986;1.0
0.0988;0.999
0.099;0.999
0.0992;0.998
0.0994;0.996
0.0996;0.995
0.0998;0.993
0.1;0.991
