energy;conductance
-0.1;0.997
-0.0998;0.995
-0.0996;0.994
-0.0994;0.992
-0.0992;0.99
-0.099;0.987
-0.0988;0.985
-0.0986;0.982
-0.0984;0.978
-0.0982;0.975
-0.098;0.971
-0.0978;0.967
-0.0976;0.962
-0.0974;0.957
-0.0972;0.952
-0.097;0.947
-0.0968;0.941
-0.0966;0.935
-0.0964;0.929
-0.0962;0.922
-0.096;0.915
-0.0958;0.907
-0.0956;0.9
-0.0954;0.891
-0.0952;0.883
-0.095;0.874
-0.0948;0.865
-0.0946;0.856
-0.0944;0.846
-0.0942;0.836
-0.094;0.826
-0.0938;0.815
-0.0936;0.804
-0.0934;0.793
-0.0932;0.781
-0.093;0.77
-0.0928;0.758
-0.0926;0.746
-0.0924;0.733
-0.0922;0.721
-0.092;0.708
-0.0918;0.695
-0.0916;0.682
-0.0914;0.669
-0.0912;0.655
-0.091;0.642
-0.0908;0.628
-0.0906;0.614
-0.0904;0.601
-0.0902;0.587
-0.09;0.573
-0.0898;0.559
-0.0896;0.545
-0.0894;0.532
-0.0892;0.518
-0.089;0.504
-0.0888;0.491
-0.0886;0.477
-0.0884;0.464
-0.0882;0.45
-0.088;0.437
-0.0878;0.424
-0.0876;0.411
-0.0874;0.398
-0.0872;0.385
-0.087;0.373
-0.0868;0.361
-0.0866;0.349
-0.0864;0.337
-0.0862;0.325
-0.086;0.314
-0.0858;0.302
-0.0856;0.291
-0.0854;0.28
-0.0852;0.27
-0.085;0.26
-0.0848;0.249
-0.0846;0.24
-0.0844;0.23
-0.0842;0.221
-0.084;0.212
-0.0838;0.203
-0.0836;0.194
-0.0834;0.186
-0.0832;0.177
-0.083;0.17
-0.0828;0.162
-0.0826;0.154
-0.0824;0.147
-0.0822;0.14
-0.082;0.134
-0.0818;0.127
-0.0816;0.121
-0.0814;0.115
-0.0812;0.109
-0.081;0.103
-0.0808;0.098
-0.0806;0.092
-0.0804;0.087
-0.0802;0.082
-0.08;0.078
-0.0798;0.073
-0.0796;0.069
-0.0794;0.065
-0.0792;0.061
-0.079;0.057
-0.0788;0.053
-0.0786;0.05
-0.0784;0.047
-0.0782;0.044
-0.078;0.041
-0.0778;0.038
-0.0776;0.035
-0.0774;0.032
-0.0772;0.03
-0.077;0.028
-0.0768;0.025
-0.0766;0.023
-0.0764;0.021
-0.0762;0.019
-0.076;0.018
-0.0758;0.016
-0.0756;0.014
-0.0754;0.013
-0.0752;0.012
-0.075;0.01
-0.0748;0.009
-0.0746;0.008
-0.0744;0.007
-0.0742;0.006
-0.074;0.005
-0.0738;0.004
-0.0736;0.004
-0.0734;0.003
-0.0732;0.002
-0.073;0.002
-0.0728;0.002
-0.0726;0.001
-0.0724;0.001
-0.0722;0.001
-0.072;0.0
-0.0718;0.0
-0.0716;0.0
-0.0714;0.0
-0.0712;0.0
-0.071;0.0
-0.0708;0.0
-0.0706;0.0
-0.0704;0.0
-0.0702;0.001
-0.07;0.001
-0.0698;0.001
-0.0696;0.001
-0.0694;0.002
-0.0692;0.002
-0.069;0.002
-0.0688;0.003
-0.0686;0.003
-0.0684;0.004
-0.0682;0.004
-0.068;0.005
-0.0678;0.005
-0.0676;0.006
-0.0674;0.007
-0.0672;0.007
-0.067;0.008
-0.0668;0.009
-0.0666;0.009
-0.0664;0.01
-0.0662;0.011
-0.066;0.011
-0.0658;0.012
-0.0656;0.013
-0.0654;0.014
-0.0652;0.015
-0.065;0.015
-0.0648;0.016
-0.0646;0.017
-0.0644;0.018
-0.0642;0.019
-0.064;0.02
-0.0638;0.02
-0.0636;0.021
-0.0634;0.022
-0.0632;0.023
-0.063;0.024
-0.0628;0.025
-0.0626;0.026
-0.0624;0.027
-0.0622;0.028
-0.062;0.029
-0.0618;0.03
-0.0616;0.031
-0.0614;0.032
-0.0612;0.033
-0.061;0.034
-0.0608;0.035
-0.0606;0.036
-0.0604;0.037
-0.0602;0.038
-0.06;0.039
-0.0598;0.04
-0.0596;0.041
-0.0594;0.042
-0.0592;0.043
-0.059;0.044
-0.0588;0.045
-0.0586;0.046
-0.0584;0.047
-0.0582;0.048
-0.058;0.049
-0.0578;0.05
-0.0576;0.051
-0.0574;0.052
-0.0572;0.053
-0.057;0.054
-0.0568;0.055
-0.0566;0.056
-0.0564;0.057
-0.0562;0.058
-0.056;0.059
-0.0558;0.06
-0.0556;0.061
-0.0554;0.062
-0.0552;0.063
-0.055;0.064
-0.0548;0.065
-0.0546;0.066
-0.0544;0.068
-0.0542;0.069
-0.054;0.07
-0.0538;0.071
-0.0536;0.072
-0.0534;0.073
-0.0532;0.074
-0.053;0.075
-0.0528;0.076
-0.0526;0.077
-0.0524;0.078
-0.0522;0.079
-0.052;0.08
-0.0518;0.081
-0.0516;0.082
-0.0514;0.083
-0.0512;0.084
-0.051;0.086
-0.0508;0.087
-0.0506;0.088
-0.0504;0.089
-0.0502;0.09
-0.05;0.091
-0.0498;0.092
-0.0496;0.093
-0.0494;0.094
-0.0492;0.095
-0.049;0.096
-0.0488;0.097
-0.0486;0.099
-0.0484;0.1
-0.0482;0.101
-0.048;0.102
-0.0478;0.103
-0.0476;0.104
-0.0474;0.105
-0.0472;0.106
-0.047;0.107
-0.0468;0.109
-0.0466;0.11
-0.0464;0.111
-0.0462;0.112
-0.046;0.113
-0.0458;0.114
-0.0456;0.115
-0.0454;0.117
-0.0452;0.118
-0.045;0.119
-0.0448;0.12
-0.0446;0.121
-0.0444;0.122
-0.0442;0.124
-0.044;0.125
-0.0438;0.126
-0.0436;0.127
-0.0434;0.129
-0.0432;0.13
-0.043;0.131
-0.0428;0.132
-0.0426;0.134
-0.0424;0.135
-0.0422;0.136
-0.042;0.137
-0.0418;0.139
-0.0416;0.14
-0.0414;0.141
-0.0412;0.143
-0.041;0.144
-0.0408;0.146
-0.0406;0.147
-0.0404;0.148
-0.0402;0.15
-0.04;0.151
-0.0398;0.153
-0.0396;0.154
-0.0394;0.156
-0.0392;0.157
-0.039;0.159
-0.0388;0.16
-0.0386;0.162
-0.0384;0.164
-0.0382;0.165
-0.038;0.167
-0.0378;0.168
-0.0376;0.17
-0.0374;0.172
-0.0372;0.174
-0.037;0.176
-0.0368;0.177
-0.0366;0.179
-0.0364;0.181
-0.0362;0.183
-0.036;0.185
-0.0358;0.187
-0.0356;0.189
-0.0354;0.191
-0.0352;0.194
-0.035;0.196
-0.0348;0.198
-0.0346;0.201
-0.0344;0.203
-0.0342;0.205
-0.034;0.208
-0.0338;0.211
-0.0336;0.213
-0.0334;0.216
-0.0332;0.219
-0.033;0.222
-0.0328;0.225
-0.0326;0.228
-0.0324;0.231
-0.0322;0.235
-0.032;0.238
-0.0318;0.242
-0.0316;0.245
-0.0314;0.249
-0.0312;0.253
-0.031;0.257
-0.0308;0.262
-0.0306;0.266
-0.0304;0.271
-0.0302;0.276
-0.03;0.281
-0.0298;0.286
-0.0296;0.292
-0.0294;0.298
-0.0292;0.304
-0.029;0.311
-0.0288;0.317
-0.0286;0.325
-0.0284;0.332
-0.0282;0.34
-0.028;0.349
-0.0278;0.358
-0.0276;0.367
-0.0274;0.377
-0.0272;0.388
-0.027;0.399
-0.0268;0.411
-0.0266;0.424
-0.0264;0.438
-0.0262;0.453
-0.026;0.469
-0.0258;0.486
-0.0256;0.505
-0.0254;0.524
-0.0252;0.546
-0.025;0.568
-0.0248;0.593
-0.0246;0.619
-0.0244;0.648
-0.0242;0.678
-0.024;0.71
-0.0238;0.745
-0.0236;0.78
-0.0234;0.817
-0.0232;0.854
-0.023;0.891
-0.0228;0.926
-0.0226;0.956
-0.0224;0.981
-0.0222;0.996
-0.022;1.0
-0.0218;0.989
-0.0216;0.962
-0.0214;0.919
-0.0212;0.862
-0.021;0.793
-0.0208;0.716
-0.0206;0.635
-0.0204;0.556
-0.0202;0.48
-0.02;0.41
-0.0198;0.347
-0.0196;0.291
-0.0194;0.243
-0.0192;0.202
-0.019;0.166
-0.0188;0.137
-0.0186;0.112
-0.0184;0.091
-0.0182;0.074
-0.018;0.059
-0.0178;0.047
-0.0176;0.038
-0.0174;0.029
-0.0172;0.023
-0.017;0.017
-0.0168;0.013
-0.0166;0.009
-0.0164;0.007
-0.0162;0.004
-0.016;0.003
-0.0158;0.002
-0.0156;0.001
-0.0154;0.0
-0.0152;0.0
-0.015;0.0
-0.0148;0.0
-0.0146;0.001
-0.0144;0.001
-0.0142;0.002
-0.014;0.002
-0.0138;0.003
-0.0136;0.004
-0.0134;0.005
-0.0132;0.006
-0.013;0.006
-0.0128;0.007
-0.0126;0.008
-0.0124;0.009
-0.0122;0.011
-0.012;0.012
-0.0118;0.013
-0.0116;0.014
-0.0114;0.015
-0.0112;0.016
-0.011;0.017
-0.0108;0.018
-0.0106;0.019
-0.0104;0.02
-0.0102;0.021
-0.01;0.022
-0.0098;0.023
-0.0096;0.025
-0.0094;0.026
-0.0092;0.027
-0.009;0.028
-0.0088;0.029
-0.0086;0.03
-0.0084;0.032
-0.0082;0.033
-0.008;0.034
-0.0078;0.035
-0.0076;0.037
-0.0074;0.038
-0.0072;0.04
-0.007;0.042
-0.0068;0.044
-0.0066;0.046
-0.0064;0.048
-0.0062;0.051
-0.006;0.054
-0.0058;0.058
-0.0056;0.063
-0.0054;0.068
-0.0052;0.075
-0.005;0.085
-0.0048;0.098
-0.0046;0.118
-0.0044;0.15
-0.0042;0.208
-0.004;0.334
-0.0038;0.663
-0.0036;0.951
-0.0034;0.291
-0.0032;0.071
-0.003;0.019
-0.0028;0.005
-0.0026;0.001
-0.0024;0.0
-0.0022;0.001
-0.002;0.002
-0.0018;0.003
-0.0016;0.004
-0.0014;0.006
-0.0012;0.007
-0.001;0.009
-0.0008;0.012
-0.0006;0.027
-0.0004;0.008
-0.0002;0.001
0.0;0.0
0.0002;0.001
0.0004;0.008
0.0006;0.027
0.0008;0.012
0.001;0.009
0.0012;0.007
0.0014;0.006
0.0016;0.004
0.0018;0.003
0.002;0.002
0.0022;0.001
0.0024;0.0
0.0026;0.001
0.0028;0.005
0.003;0.019
0.0032;0.071
0.0034;0.291
0.0036;0.951
0.0038;0.663
0.004;0.334
0.0042;0.208
0.0044;0.15
0.0046;0.118
0.0048;0.098
0.005;0.085
0.0052;0.075
0.0054;0.068
0.0056;0.063
0.0058;0.058
0.006;0.054
0.0062;0.051
0.0064;0.048
0.0066;0.046
0.0068;0.044
0.007;0.042
0.0072;0.04
0.0074;0.038
0.0076;0.037
0.0078;0.035
0.008;0.034
0.0082;0.033
0.0084;0.032
0.0086;0.03
0.0088;0.029
0.009;0.028
0.0092;0.027
0.0094;0.026
0.0096;0.025
0.0098;0.023
0.01;0.022
0.0102;0.021
0.0104;0.02
0.0106;0.019
0.0108;0.018
0.011;0.017
0.0112;0.016
0.0114;0.015
0.0116;0.014
0.0118;0.013
0.012;0.012
0.0122;0.011
0.0124;0.009
0.0126;0.008
0.0128;0.007
0.013;0.006
0.0132;0.006
0.0134;0.005
0.0136;0.004
0.0138;0.003
0.014;0.002
0.0142;0.002
0.0144;0.001
0.0146;0.001
0.0148;0.0
0.015;0.0
0.0152;0.0
0.0154;0.0
0.0156;0.001
0.0158;0.002
0.016;0.003
0.0162;0.004
0.0164;0.007
0.0166;0.009
0.0168;0.013
0.017;0.017
0.0172;0.023
0.0174;0.029
0.0176;0.038
0.0178;0.047
0.018;0.059
0.0182;0.074
0.0184;0.091
0.0186;0.112
0.0188;0.137
0.019;0.166
0.0192;0.202
0.0194;0.243
0.0196;0.291
0.0198;0.347
0.02;0.41
0.0202;0.48
0.0204;0.556
0.0206;0.635
0.0208;0.716
0.021;0.793
0.0212;0.862
0.0214;0.919
0.0216;0.962
0.0218;0.989
0.022;1.0
0.0222;0.996
0.0224;0.981
0.0226;0.956
0.0228;0.926
0.023;0.891
0.0232;0.854
0.0234;0.817
0.0236;0.78
0.0238;0.745
0.024;0.71
0.0242;0.678
0.0244;0.648
0.0246;0.619
0.0248;0.593
0.025;0.568
0.0252;0.546
0.0254;0.524
0.0256;0.505
0.0258;0.486
0.026;0.469
0.0262;0.453
0.0264;0.438
0.0266;0.424
0.0268;0.411
0.027;0.399
0.0272;0.388
0.0274;0.377
0.0276;0.367
0.0278;0.358
0.028;0.349
0.0282;0.34
0.0284;0.332
0.0286;0.325
0.0288;0.317
0.029;0.311
0.0292;0.304
0.0294;0.298
0.0296;0.292
0.0298;0.286
0.03;0.281
0.0302;0.276
0.0304;0.271
0.0306;0.266
0.0308;0.262
0.031;0.257
0.0312;0.253
0.0314;0.249
0.0316;0.245
0.0318;0.242
0.032;0.238
0.0322;0.235
0.0324;0.231
0.0326;0.228
0.0328;0.225
0.033;0.222
0.0332;0.219
0.0334;0.216
0.0336;0.213
0.0338;0.211
0.034;0.208
0.0342;0.205
0.0344;0.203
0.0346;0.201
0.0348;0.198
0.035;0.196
0.0352;0.194
0.0354;0.191
0.0356;0.189
0.0358;0.187
0.036;0.185
0.0362;0.183
0.0364;0.181
0.0366;0.179
0.0368;0.177
0.037;0.176
0.0372;0.174
0.0374;0.172
0.0376;0.17
0.0378;0.168
0.038;0.167
0.0382;0.165
0.0384;0.164
0.0386;0.162
0.0388;0.16
0.039;0.159
0.0392;0.157
0.0394;0.156
0.0396;0.154
0.0398;0.153
0.04;0.151
0.0402;0.15
0.0404;0.148
0.0406;0.147
0.0408;0.146
0.041;0.144
0.0412;0.143
0.0414;0.141
0.0416;0.14
0.0418;0.139
0.042;0.137
0.0422;0.136
0.0424;0.135
0.0426;0.134
0.0428;0.132
0.043;0.131
0.0432;0.13
0.0434;0.129
0.0436;0.127
0.0438;0.126
0.044;0.125
0.0442;0.124
0.0444;0.122
0.0446;0.121
0.0448;0.12
0.045;0.119
0.0452;0.118
0.0454;0.117
0.0456;0.115
0.0458;0.114
0.046;0.113
0.0462;0.112
0.0464;0.111
0.0466;0.11
0.0468;0.109
0.047;0.107
0.0472;0.106
0.0474;0.105
0.0476;0.104
0.0478;0.103
0.048;0.102
0.0482;0.101
0.0484;0.1
0.0486;0.099
0.0488;0.097
0.049;0.096
0.0492;0.095
0.0494;0.094
0.0496;0.093
0.0498;0.092
0.05;0.091
0.0502;0.09
0.0504;0.089
0.0506;0.088
0.0508;0.087
0.051;0.086
0.0512;0.084
0.0514;0.083
0.0516;0.082
0.0518;0.081
0.052;0.08
0.0522;0.079
0.0524;0.078
0.0526;0.077
0.0528;0.076
0.053;0.075
0.0532;0.074
0.0534;0.073
0.0536;0.072
0.0538;0.071
0.054;0.07
0.0542;0.069
0.0544;0.068
0.0546;0.066
0.0548;0.065
0.055;0.064
0.0552;0.063
0.0554;0.062
0.0556;0.061
0.0558;0.06
0.056;0.059
0.0562;0.058
0.0564;0.057
0.0566;0.056
0.0568;0.055
0.057;0.054
0.0572;0.053
0.0574;0.052
0.0576;0.051
0.0578;0.05
0.058;0.049
0.0582;0.048
0.0584;0.047
0.0586;0.046
0.0588;0.045
0.059;0.044
0.0592;0.043
0.0594;0.042
0.0596;0.041
0.0598;0.04
0.06;0.039
0.0602;0.038
0.0604;0.037
0.0606;0.036
0.0608;0.035
0.061;0.034
0.0612;0.033
0.0614;0.032
0.0616;0.031
0.0618;0.03
0.062;0.029
0.0622;0.028
0.0624;0.027
0.0626;0.026
0.0628;0.025
0.063;0.024
0.0632;0.023
0.0634;0.022
0.0636;0.021
0.0638;0.02
0.064;0.02
0.0642;0.019
0.0644;0.018
0.0646;0.017
0.0648;0.016
0.065;0.015
0.0652;0.015
0.0654;0.014
0.0656;0.013
0.0658;0.012
0.066;0.011
0.0662;0.011
0.0664;0.01
0.0666;0.009
0.0668;0.009
0.067;0.008
0.0672;0.007
0.0674;0.007
0.0676;0.006
0.0678;0.005
0.068;0.005
0.0682;0.004
0.0684;0.004
0.0686;0.003
0.0688;0.003
0.069;0.002
0.0692;0.002
0.0694;0.002
0.0696;0.001
0.0698;0.001
0.07;0.001
0.0702;0.001
0.0704;0.0
0.0706;0.0
0.0708;0.0
0.071;0.0
0.0712;0.0
0.0714;0.0
0.0716;0.0
0.0718;0.0
0.072;0.0
0.0722;0.001
0.0724;0.001
0.0726;0.001
0.0728;0.002
0.073;0.002
0.0732;0.002
0.0734;0.003
0.0736;0.004
0.0738;0.004
0.074;0.005
0.0742;0.006
0.0744;0.007
0.0746;0.008
0.0748;0.009
0.075;0.01
0.0752;0.012
0.0754;0.013
0.0756;0.014
0.0758;0.016
0.076;0.018
0.0762;0.019
0.0764;0.021
0.0766;0.023
0.0768;0.025
0.077;0.028
0.0772;0.03
0.0774;0.032
0.0776;0.035
0.0778;0.038
0.078;0.041
0.0782;0.044
0.0784;0.047
0.0786;0.05
0.0788;0.053
0.079;0.057
0.0792;0.061
0.0794;0.065
0.0796;0.069
0.0798;0.073
0.08;0.078
0.0802;0.082
0.0804;0.087
0.0806;0.092
0.0808;0.098
0.081;0.103
0.0812;0.109
0.0814;0.115
0.0816;0.121
0.0818;0.127
0.082;0.134
0.0822;0.14
0.0824;0.147
0.0826;0.154
0.0828;0.162
0.083;0.17
0.0832;0.177
0.0834;0.186
0.0836;0.194
0.0838;0.203
0.084;0.212
0.0842;0.221
0.0844;0.23
0.0846;0.24
0.0848;0.249
0.085;0.26
0.0852;0.27
0.0854;0.28
0.0856;0.291
0.0858;0.302
0.086;0.314
0.0862;0.325
0.0864;0.337
0.0866;0.349
0.0868;0.361
0.087;0.373
0.0872;0.385
0.0874;0.398
0.0876;0.411
0.0878;0.424
0.088;0.437
0.0882;0.45
0.0884;0.464
0.0886;0.477
0.0888;0.491
0.089;0.504
0.0892;0.518
0.0894;0.532
0.0896;0.545
0.0898;0.559
0.09;0.573
0.0902;0.587
0.0904;0.601
0.0906;0.614
0.0908;0.628
0.091;0.642
0.0912;0.655
0.0914;0.669
0.0916;0.682
0.0918;0.695
0.092;0.708
0.0922;0.721
0.0924;0.733
0.0926;0.746
0.0928;0.758
0.093;0.77
0.0932;0.781
0.0934;0.793
0.0936;0.804
0.0938;0.815
0.094;0.826
0.0942;0.836
0.0944;0.846
0.0946;0.856
0.0948;0.865
0.095;0.874
0.0952;0.883
0.0954;0.891
0.0956;0.9
0.0958;0.907
0.096;0.915
0.0962;0.922
0.0964;0.929
0.0966;0.935
0.0968;0.941
0.097;0.947
0.0972;0.952
0.0974;0.957
0.0976;0.962
0.0978;0.967
0.098;0.971
0.0982;0.975
0.0984;0.978
0.0986;0.982
0.0988;0.985
0.099;0.987
0.0992;0.99
0.0994;0.992
0.0996;0.994
0.0998;0.995
0.1;0.997
